timestamps,TP9,AF7,AF8,TP10,Right AUX,Marker0
61482.104,67.871,29.785,31.250,50.293,-31.250,0
61482.108,59.570,31.738,31.738,32.227,11.230,0
61482.112,36.133,34.668,37.598,21.973,16.113,0
61482.115,43.457,35.645,44.434,41.992,52.734,0
61482.119,55.664,34.180,39.062,58.105,57.617,0
61482.123,41.504,33.203,35.156,40.527,3.906,0
61482.127,28.320,35.645,39.062,23.926,-3.906,0
61482.131,36.621,34.668,35.156,38.086,34.668,0
61482.135,56.152,31.738,31.738,55.664,77.148,0
61482.139,58.105,32.715,28.320,43.945,38.574,0
61482.143,43.457,33.203,25.391,26.855,17.578,0
61482.147,42.969,31.250,31.738,30.273,32.227,0
61482.151,55.176,29.297,33.691,49.805,45.410,0
61482.155,59.082,26.855,33.203,51.758,79.590,0
61482.158,39.551,29.297,38.086,27.344,6.836,0
61482.162,28.809,35.645,41.504,19.531,-43.945,0
61482.166,44.922,34.668,39.551,41.992,54.688,0
61482.170,50.781,31.738,37.598,46.387,102.539,0
61482.174,34.668,33.691,32.715,17.578,43.945,0
61482.178,27.832,34.668,29.297,8.789,-20.508,0
61482.182,41.992,35.156,33.691,28.809,-4.883,0
61482.186,58.594,34.668,29.297,45.410,60.547,0
61482.190,40.039,33.203,32.227,35.645,80.078,0
61482.194,20.020,29.785,37.598,12.207,18.066,0
61482.197,27.832,30.762,34.668,17.578,24.902,0
61482.201,40.527,31.738,32.715,41.992,50.781,0
61482.205,41.504,28.809,27.344,39.551,23.926,0
61482.209,29.785,31.738,30.762,18.066,-15.625,0
61482.213,28.809,31.738,30.762,19.043,23.926,0
61482.217,35.156,27.832,25.391,39.551,77.637,0
61482.221,43.457,31.250,25.391,47.852,84.961,0
61482.225,28.809,33.203,31.250,29.785,87.891,0
61482.229,16.602,32.715,34.180,25.391,45.898,0
61482.233,35.156,37.109,28.809,41.992,-22.949,0
61482.237,51.270,33.691,25.879,47.363,59.082,0
61482.240,44.434,29.785,29.297,33.203,113.281,0
61482.244,27.344,34.180,32.715,17.578,20.996,0
61482.248,32.227,33.691,40.039,28.320,11.719,0
61482.252,45.898,30.762,37.109,47.363,62.988,0
61482.256,41.992,30.762,29.297,35.156,34.668,0
61482.260,19.043,30.273,31.250,12.695,22.949,0
61482.264,16.602,31.738,32.227,21.484,39.062,0
61482.268,38.574,30.273,30.273,46.387,37.598,0
61482.272,42.969,25.879,27.832,47.363,97.656,0
61482.276,27.832,28.809,28.320,13.672,28.320,0
61482.280,30.273,30.762,35.156,9.277,-23.926,0
61482.283,42.969,30.273,33.691,40.527,71.777,0
61482.287,46.387,28.320,33.203,51.758,113.770,0
61482.291,31.738,28.320,36.133,30.273,6.348,0
61482.295,19.043,30.762,31.738,17.578,-43.457,0
61482.299,32.227,30.273,29.297,35.156,26.367,0
61482.303,42.969,27.832,26.855,43.945,64.941,0
61482.307,28.809,28.320,28.320,24.902,10.254,0
61482.311,14.648,27.832,30.273,10.254,-23.926,0
61482.315,20.508,26.855,24.414,28.320,23.438,0
61482.319,37.598,29.297,26.367,44.434,19.531,0
61482.322,38.574,31.250,31.250,25.879,37.598,0
61482.326,26.855,33.203,35.156,11.230,67.383,0
61482.330,30.273,34.668,38.086,24.414,56.641,0
61482.334,45.898,36.133,34.180,46.387,75.195,0
61482.338,48.340,39.062,27.832,43.457,33.691,0
61482.342,35.645,35.156,24.414,13.672,-36.133,0
61482.346,31.738,31.250,26.367,6.348,-41.992,0
61482.350,40.527,31.738,28.809,34.180,19.531,0
61482.354,51.270,28.809,25.879,46.875,53.711,0
61482.358,38.574,29.297,28.320,23.926,49.805,0
61482.362,25.879,31.738,31.738,10.742,33.203,0
61482.365,30.273,31.250,28.809,29.785,25.391,0
61482.369,41.992,29.785,25.391,53.711,84.473,0
61482.373,41.504,29.785,25.879,31.738,61.523,0
61482.377,30.273,31.738,31.250,7.812,-29.785,0
61482.381,35.156,30.273,32.227,25.391,-8.301,0
61482.385,50.293,31.738,29.785,50.781,62.012,0
61482.389,47.363,33.203,32.227,46.875,73.242,0
61482.393,33.691,33.691,36.133,22.461,-34.668,0
61482.397,26.367,35.156,37.109,26.855,4.395,0
61482.401,36.133,33.203,34.180,47.363,113.281,0
61482.405,43.945,34.180,33.203,48.828,86.426,0
61482.408,26.855,33.203,33.203,27.832,57.129,0
61482.412,21.973,30.762,32.227,19.531,-27.344,0
61482.416,30.762,26.367,25.879,24.902,-32.227,0
61482.420,35.156,22.949,20.508,29.297,66.895,0
61482.424,28.320,22.949,19.043,20.020,32.227,0
61482.428,16.113,25.879,29.785,9.277,-23.438,0
61482.432,25.391,30.762,42.969,25.391,-37.598,0
61482.436,42.480,25.879,31.738,45.410,17.578,0
61482.440,33.203,22.461,26.367,27.344,53.711,0
61482.444,17.090,26.855,31.738,11.719,0.977,0
61482.447,20.508,26.367,37.109,29.785,-1.465,0
61482.451,31.250,24.902,37.598,53.711,46.387,0
61482.455,37.109,26.855,33.691,41.504,58.105,0
61482.459,22.949,30.273,35.645,12.695,19.531,0
61482.463,14.160,29.785,36.133,20.020,30.762,0
61482.467,30.273,26.367,32.715,41.504,84.473,0
61482.471,36.133,25.879,31.250,43.945,75.684,0
61482.475,30.273,31.250,37.598,31.250,49.316,0
61482.479,27.344,31.250,43.945,22.949,46.875,0
61482.483,30.762,31.250,38.574,39.062,47.363,0
61482.487,43.457,33.203,32.227,53.711,75.684,0
61482.490,35.156,33.203,33.203,31.738,44.922,0
61482.494,19.531,32.227,36.621,12.695,-40.527,1
61482.498,29.297,30.273,35.156,32.715,-73.730,0
61482.502,52.246,28.809,29.785,48.828,-15.137,0
61482.506,51.758,29.297,28.320,34.180,77.148,0
61482.510,32.715,34.668,38.086,24.414,-17.578,0
61482.514,32.715,36.621,38.086,26.367,-60.059,0
61482.518,44.922,28.320,26.367,38.574,47.363,0
61482.522,36.621,27.832,31.250,44.434,69.336,0
61482.526,19.531,31.738,38.086,24.414,32.715,0
61482.530,18.066,33.203,37.109,16.602,4.883,0
61482.533,34.668,34.180,33.691,39.551,29.297,0
61482.537,42.480,30.762,33.203,50.781,68.848,0
61482.541,21.973,31.250,38.574,30.762,30.762,0
61482.545,12.695,35.156,41.504,22.949,-16.113,0
61482.549,25.391,34.668,38.574,41.504,52.734,0
61482.553,37.109,33.691,33.203,45.898,125.488,0
61482.557,37.109,31.738,29.785,26.367,83.496,0
61482.561,31.738,35.645,33.691,20.508,1.953,0
61482.565,35.645,38.086,36.133,33.691,-23.438,0
61482.569,49.316,36.621,35.156,51.758,36.133,0
61482.572,50.781,36.133,39.062,47.363,63.965,0
61482.576,32.715,36.621,37.598,20.508,-17.090,0
61482.580,32.227,37.598,32.227,23.926,-13.184,0
61482.584,53.223,33.691,30.762,49.316,-13.672,0
61482.588,49.805,29.785,28.320,41.992,-13.184,0
61482.592,28.320,35.645,29.785,20.508,33.203,0
61482.596,24.414,39.062,34.668,19.043,-12.695,0
61482.600,37.109,33.203,27.832,33.203,-4.395,0
61482.604,44.434,26.367,23.926,37.598,29.297,0
61482.608,33.691,30.762,33.691,25.879,32.227,0
61482.612,22.949,39.551,36.133,15.137,32.227,0
61482.615,30.762,36.133,31.250,23.926,22.949,0
61482.619,44.922,30.762,30.762,42.969,26.855,0
61482.623,30.762,32.227,31.250,27.832,49.316,0
61482.627,20.508,36.133,37.598,13.184,12.695,0
61482.631,35.156,34.180,40.039,29.785,-19.531,0
61482.635,57.129,33.203,39.062,51.270,13.672,0
61482.639,54.199,33.203,39.551,47.363,15.137,0
61482.643,33.691,35.156,41.992,23.926,-24.902,0
61482.647,28.809,36.621,39.062,19.531,-28.320,0
61482.651,46.875,36.621,35.156,45.410,25.391,0
61482.655,52.734,29.785,34.668,51.758,85.449,0
61482.658,24.902,28.320,35.645,24.414,59.082,0
61482.662,16.113,32.227,37.598,19.531,-14.160,0
61482.666,29.785,28.809,34.180,41.504,22.461,0
61482.670,43.457,26.367,28.809,48.340,95.215,0
61482.674,35.156,27.832,31.250,30.762,70.801,0
61482.678,21.973,30.762,31.250,22.461,6.348,0
61482.682,24.902,33.203,32.227,41.504,28.320,0
61482.686,40.527,27.344,30.762,56.641,90.332,0
61482.690,38.574,26.855,24.902,35.156,72.266,0
61482.694,17.578,32.715,25.391,7.324,25.879,0
61482.697,17.090,31.738,33.203,19.531,-24.902,0
61482.701,31.250,28.320,26.367,39.551,17.578,0
61482.705,34.180,26.855,19.043,26.855,44.922,0
61482.709,26.855,30.762,25.879,11.230,-55.664,0
61482.713,28.320,32.227,27.344,14.648,-5.371,0
61482.717,42.969,30.273,23.438,34.668,102.539,0
61482.721,46.875,30.273,21.973,40.039,79.102,0
61482.725,30.762,30.762,23.926,20.020,61.523,0
61482.729,18.066,34.668,25.391,14.648,-37.109,0
61482.733,17.578,30.762,23.926,27.344,-61.035,0
61482.737,33.691,25.879,21.973,41.992,32.227,0
61482.740,34.180,31.250,27.344,31.250,16.602,0
61482.744,15.625,31.738,26.367,15.625,-6.348,0
61482.748,14.648,28.320,21.973,32.227,42.969,0
61482.752,34.180,27.344,28.320,48.340,88.867,0
61482.756,35.645,30.762,27.344,37.109,43.457,0
61482.760,20.020,30.762,30.762,17.578,-10.254,0
61482.764,20.020,27.832,33.203,17.090,7.324,0
61482.768,33.203,27.344,27.344,41.016,83.008,0
61482.772,42.480,26.855,24.414,35.645,64.941,0
61482.776,32.227,29.785,31.250,11.719,-27.832,0
61482.780,28.320,32.715,36.133,18.555,0.488,0
61482.783,41.992,31.738,29.785,39.551,15.137,0
61482.787,51.270,27.832,22.949,41.504,44.922,0
61482.791,43.945,29.785,27.344,19.043,78.613,0
61482.795,36.621,38.574,30.273,8.789,13.184,0
61482.799,46.387,37.109,28.809,27.832,-18.555,0
61482.803,58.105,32.715,26.855,42.480,51.270,0
61482.807,41.016,36.621,27.832,29.297,75.684,0
61482.811,16.602,41.016,33.203,15.625,8.301,0
61482.815,14.648,39.551,31.250,28.809,-24.414,0
61482.819,34.668,37.598,30.762,45.410,18.066,0
61482.822,40.039,36.621,27.832,35.156,42.480,0
61482.826,20.508,38.086,21.973,20.020,-5.371,0
61482.830,17.090,40.039,29.297,23.926,-14.648,0
61482.834,30.273,32.227,28.809,33.691,93.750,0
61482.838,36.133,29.297,22.461,34.180,106.934,0
61482.842,20.020,36.621,29.785,18.555,-13.184,0
61482.846,16.113,38.574,36.621,13.672,-34.668,0
61482.850,30.762,37.109,35.645,32.227,-7.324,0
61482.854,33.691,29.785,29.785,36.621,26.855,0
61482.858,18.555,28.320,32.227,21.484,24.902,0
61482.862,2.441,29.785,34.180,13.184,-13.184,0
61482.865,12.207,28.809,30.273,26.367,-12.695,0
61482.869,27.832,31.250,24.902,38.574,73.730,0
61482.873,28.809,32.227,27.832,20.020,98.633,0
61482.877,15.625,33.691,35.156,8.301,7.812,0
61482.881,21.484,35.156,37.109,21.484,8.789,0
61482.885,42.480,32.715,32.227,35.156,56.152,0
61482.889,37.598,32.715,30.273,28.809,75.195,0
61482.893,19.043,36.133,37.598,8.789,25.879,0
61482.897,16.602,34.668,35.156,12.207,20.020,0
61482.901,31.250,32.227,26.367,41.504,58.594,0
61482.905,43.457,31.250,26.367,44.434,45.410,0
61482.908,30.762,33.691,29.785,15.137,13.184,0
61482.912,26.367,37.109,31.738,10.742,4.883,0
61482.916,39.062,37.598,30.273,34.668,29.785,0
61482.920,48.340,37.598,28.320,45.898,31.738,0
61482.924,47.363,38.086,33.691,28.809,32.227,0
61482.928,30.762,37.109,33.203,16.113,19.531,0
61482.932,30.273,39.551,29.297,32.715,-4.395,0
61482.936,45.898,36.133,20.020,48.828,55.176,0
61482.940,38.574,33.203,19.043,34.668,33.203,0
61482.944,18.066,36.621,33.203,17.090,-55.664,0
61482.947,26.855,35.156,41.504,33.691,-22.949,0
61482.951,45.410,32.227,40.527,58.105,14.160,0
61482.955,44.922,32.715,35.156,50.781,-11.719,0
61482.959,31.250,33.203,39.551,22.461,-5.371,0
61482.963,21.484,30.273,41.992,15.137,21.973,0
61482.967,32.715,31.250,33.691,40.039,79.102,0
61482.971,41.504,30.273,29.297,44.922,102.539,0
61482.975,27.344,31.250,33.203,25.879,53.711,0
61482.979,20.020,34.180,41.016,23.438,18.066,0
61482.983,25.391,32.715,37.109,35.645,-3.418,0
61482.987,31.738,33.203,28.320,46.387,31.738,0
61482.990,24.414,33.203,30.273,30.273,53.711,0
61482.994,8.301,29.785,31.738,4.883,-31.250,0
61482.998,12.207,30.762,30.762,20.020,-51.758,0
61483.002,35.156,30.762,30.762,47.363,56.152,0
61483.006,33.691,29.297,31.738,37.109,67.383,0
61483.010,14.160,33.203,32.715,15.137,-13.184,0
61483.014,13.184,35.156,31.738,20.020,-9.766,0
61483.018,28.320,33.691,32.227,44.434,46.875,0
61483.022,39.062,32.227,28.809,40.039,57.129,0
61483.026,29.785,33.203,28.809,14.160,60.059,0
61483.030,15.625,40.039,34.180,17.090,14.648,0
61483.033,25.391,38.574,28.320,37.598,-18.066,0
61483.037,47.852,33.203,21.484,51.270,30.273,0
61483.041,32.227,33.203,29.297,34.180,0.488,0
61483.045,11.719,31.738,33.691,16.113,-65.430,0
61483.049,25.391,34.180,32.227,41.016,6.836,0
61483.053,40.527,33.691,27.344,52.734,108.398,0
61483.057,36.621,32.227,28.809,35.156,123.535,0
61483.061,22.949,33.203,35.156,22.461,40.039,0
61483.065,27.832,32.715,31.250,30.762,-36.621,0
61483.069,44.922,29.785,28.320,48.340,30.762,0
61483.072,47.363,30.762,28.320,36.133,69.336,0
61483.076,35.645,34.668,28.809,15.137,58.594,0
61483.080,34.668,36.133,31.738,30.762,34.180,0
61483.084,50.293,36.133,29.785,56.641,34.668,0
61483.088,54.199,34.180,24.414,53.223,89.355,0
61483.092,39.551,36.621,26.855,26.855,62.012,0
61483.096,31.250,36.133,29.785,21.973,28.809,0
61483.100,38.574,33.691,30.273,49.316,59.570,0
61483.104,51.270,34.668,27.832,60.059,65.430,0
61483.108,38.086,35.156,28.320,37.598,-2.930,0
61483.112,19.531,37.109,38.086,23.926,-62.988,0
61483.115,26.367,35.156,36.621,35.156,-52.246,0
61483.119,43.457,32.227,23.438,53.711,18.066,0
61483.123,29.297,31.738,26.367,41.016,66.406,0
61483.127,15.137,34.180,30.273,21.484,6.348,0
61483.131,34.180,39.551,31.250,34.180,10.742,0
61483.135,47.363,38.574,32.227,53.223,49.805,0
61483.139,36.621,35.156,21.484,43.457,37.109,0
61483.143,14.648,37.109,19.531,24.414,30.273,0
61483.147,12.695,37.109,26.367,22.949,23.926,0
61483.151,30.273,34.668,33.203,50.781,62.988,0
61483.155,34.180,29.785,33.203,57.617,44.434,1
61483.158,22.949,30.273,33.691,32.227,-11.230,0
61483.162,24.414,32.715,38.574,26.367,-4.395,0
61483.166,37.109,30.273,34.668,48.828,12.695,0
61483.170,41.016,29.297,33.691,58.105,73.730,0
61483.174,36.621,34.180,37.598,37.598,94.727,0
61483.178,33.691,38.574,39.062,31.250,41.504,0
61483.182,43.945,39.062,40.527,44.434,20.020,0
61483.186,59.570,34.180,38.086,58.594,2.441,0
61483.190,51.758,29.785,34.180,44.434,7.812,0
61483.194,29.297,31.738,36.621,23.926,-30.273,0
61483.197,25.391,32.715,34.668,34.668,-51.758,0
61483.201,39.551,33.691,30.762,57.617,68.359,0
61483.205,45.410,34.668,37.109,53.223,77.148,0
61483.209,32.715,35.156,40.527,33.203,-11.230,0
61483.213,25.879,34.668,34.668,32.715,41.992,0
61483.217,37.109,33.691,28.809,50.781,100.098,0
61483.221,42.969,31.250,27.832,54.688,95.703,0
61483.225,35.156,35.156,35.645,34.668,9.766,0
61483.229,24.414,34.180,35.156,25.879,-36.133,0
61483.233,34.180,28.809,31.738,44.434,33.203,0
61483.237,52.246,27.344,35.645,58.594,43.457,0
61483.240,41.992,31.250,39.551,31.738,15.625,0
61483.244,24.414,35.645,44.922,13.184,29.785,0
61483.248,25.391,31.738,44.922,34.668,57.129,0
61483.252,39.551,25.879,36.621,47.363,81.543,0
61483.256,37.109,26.367,30.273,27.832,30.273,0
61483.260,26.855,34.668,34.180,16.113,-80.078,0
61483.264,30.762,37.109,35.156,24.414,-37.109,0
61483.268,41.992,31.738,30.273,41.504,74.219,0
61483.272,47.363,31.738,25.879,35.645,64.941,0
61483.276,33.203,33.691,29.785,10.742,53.223,0
61483.280,30.273,36.133,32.227,11.719,14.160,0
61483.283,41.992,36.133,28.320,37.109,-1.465,0
61483.287,46.875,31.738,27.344,47.852,33.691,0
61483.291,32.715,32.715,35.645,24.414,48.340,0
61483.295,14.160,33.691,39.551,10.254,7.324,0
61483.299,16.113,28.809,33.691,22.949,32.227,0
61483.303,34.668,27.832,28.320,35.645,75.684,0
61483.307,31.250,31.250,27.832,23.438,10.254,0
61483.311,17.578,35.645,28.809,3.906,-29.297,0
61483.315,21.484,33.691,26.855,12.695,-28.809,0
61483.319,36.133,26.367,25.391,35.156,0.977,0
61483.322,38.086,26.367,21.973,33.691,60.059,0
61483.326,19.531,33.691,20.020,13.672,15.137,0
61483.330,26.367,36.621,26.367,18.555,-20.020,0
61483.334,42.480,28.809,26.367,36.621,56.152,0
61483.338,41.016,26.367,26.855,37.109,79.102,0
61483.342,21.973,27.832,29.297,12.695,20.996,0
61483.346,17.090,31.250,31.250,10.254,12.695,0
61483.350,36.621,32.715,34.668,38.086,61.523,0
61483.354,47.852,25.879,28.809,44.434,64.941,0
61483.358,32.715,23.438,20.020,20.020,53.711,0
61483.362,15.137,26.367,23.926,7.812,35.156,0
61483.365,24.902,25.879,29.297,28.809,35.156,0
61483.369,42.480,24.902,26.367,45.898,50.781,0
61483.373,38.086,26.367,26.855,27.344,7.324,0
61483.377,23.926,28.809,31.738,9.766,8.301,0
61483.381,27.344,30.273,30.762,24.902,58.594,0
61483.385,46.387,28.809,31.738,44.922,86.426,0
61483.389,48.340,28.320,33.203,41.992,70.312,0
61483.393,27.832,27.344,28.320,12.207,19.043,0
61483.397,27.344,29.297,30.273,8.789,-32.227,0
61483.401,44.922,30.273,23.926,32.715,30.762,0
61483.405,47.363,31.250,18.066,40.527,104.980,0
61483.408,28.809,33.203,25.391,22.949,78.613,0
61483.412,24.902,35.156,29.297,17.578,27.832,0
61483.416,45.410,35.645,31.250,42.969,36.133,0
61483.420,51.270,33.203,31.738,58.105,64.941,0
61483.424,39.062,32.715,36.621,40.039,4.883,0
61483.428,24.902,35.156,37.598,24.902,-25.879,0
61483.432,27.832,30.762,23.926,35.645,-7.324,0
61483.436,48.828,25.879,22.461,50.293,71.777,0
61483.440,35.645,26.367,34.668,37.598,101.074,0
61483.444,15.625,28.320,37.109,17.578,28.809,0
61483.447,26.855,33.203,33.203,31.250,25.879,0
61483.451,43.457,32.227,30.762,49.316,58.105,0
61483.455,47.363,27.832,29.785,40.039,55.664,0
61483.459,30.273,29.785,30.273,17.578,4.883,0
61483.463,23.438,30.273,31.738,19.531,-16.113,0
61483.467,35.645,26.367,30.273,40.527,24.414,0
61483.471,45.898,24.414,30.762,42.969,73.242,0
61483.475,33.691,25.879,28.809,23.438,101.562,0
61483.479,22.949,28.320,32.227,18.555,63.477,0
61483.483,35.645,31.738,38.086,39.062,-13.672,0
61483.487,42.480,30.762,26.855,52.734,33.691,0
61483.490,28.320,29.297,25.391,36.133,68.848,0
61483.494,23.926,29.297,30.762,16.113,-10.254,0
61483.498,36.133,26.367,31.250,32.227,33.691,0
61483.502,45.898,25.879,28.809,53.223,137.695,0
61483.506,41.992,28.320,28.320,43.945,32.227,0
61483.510,27.344,33.203,31.738,24.414,-95.215,0
61483.514,26.855,32.715,30.762,26.367,-64.453,0
61483.518,36.621,29.297,28.809,41.504,-17.578,0
61483.522,41.016,25.879,28.320,39.062,2.441,0
61483.526,27.344,28.809,30.273,22.949,-35.156,0
61483.530,13.672,32.715,30.762,20.020,-97.168,0
61483.533,31.738,30.273,31.250,37.109,-24.902,0
61483.537,48.828,28.809,33.203,45.410,68.359,0
61483.541,41.504,30.762,32.715,27.344,47.363,0
61483.545,28.320,31.738,33.691,19.043,23.438,0
61483.549,34.180,31.738,35.156,38.086,-32.227,0
61483.553,45.410,31.738,29.785,53.711,1.953,0
61483.557,32.227,30.762,30.273,38.086,62.012,0
61483.561,19.531,29.297,38.086,20.020,10.254,0
61483.565,29.297,30.273,35.645,27.832,23.438,0
61483.569,42.480,28.809,32.715,45.898,84.961,0
61483.572,39.551,28.320,33.691,39.551,109.375,0
61483.576,21.973,28.320,27.832,12.207,91.797,0
61483.580,15.137,31.738,22.949,15.625,29.297,0
61483.584,34.180,32.715,26.367,41.504,28.320,0
61483.588,41.016,29.785,31.738,43.945,81.055,0
61483.592,19.531,33.691,38.086,23.438,66.406,0
61483.596,16.602,35.156,35.645,16.602,9.277,0
61483.600,33.691,30.273,30.762,39.062,8.789,0
61483.604,38.574,32.227,22.949,52.734,50.781,0
61483.608,24.902,37.109,25.391,32.715,11.719,0
61483.612,13.184,37.109,28.320,13.672,-45.410,0
61483.615,24.902,36.133,27.832,28.320,7.812,0
61483.619,40.527,32.227,27.832,44.434,71.289,0
61483.623,32.227,33.691,31.250,35.156,1.465,0
61483.627,23.438,37.598,33.203,13.672,-67.383,0
61483.631,28.320,37.598,35.645,24.902,22.949,0
61483.635,36.133,35.156,32.715,45.898,142.578,0
61483.639,35.156,30.273,24.902,25.391,118.652,0
61483.643,17.578,29.297,27.832,5.859,7.812,0
61483.647,18.066,30.762,28.809,13.672,3.906,0
61483.651,27.344,31.250,27.832,35.645,37.109,0
61483.655,32.227,26.367,23.438,34.668,38.574,0
61483.658,17.090,22.461,20.508,13.672,45.898,0
61483.662,10.254,30.762,30.273,13.184,0.977,0
61483.666,30.273,36.621,34.180,33.691,0.000,0
61483.670,42.480,35.156,31.738,49.316,64.941,0
61483.674,28.320,35.156,33.203,28.809,54.199,0
61483.678,16.113,30.762,37.598,12.695,-11.719,0
61483.682,23.438,26.367,37.109,30.273,-21.484,0
61483.686,41.504,26.855,27.832,43.457,51.270,0
61483.690,35.645,28.809,23.926,32.715,78.613,0
61483.694,10.742,27.832,26.367,7.324,26.367,0
61483.697,12.207,25.879,28.320,15.137,35.645,2
61483.701,33.691,25.391,28.320,43.945,90.332,0
61483.705,34.180,23.926,25.879,36.621,76.660,0
61483.709,18.066,25.879,28.320,15.625,26.367,0
61483.713,18.555,28.320,34.180,20.020,13.184,0
61483.717,34.180,27.832,29.297,41.504,33.203,0
61483.721,43.457,25.391,23.438,46.387,4.883,0
61483.725,28.809,28.320,30.762,20.996,6.836,0
61483.729,16.602,32.715,39.062,19.043,0.000,0
61483.733,29.297,27.832,35.645,43.457,83.496,0
61483.737,49.805,22.949,21.484,46.875,87.891,0
61483.740,40.527,27.344,18.555,27.344,4.395,0
61483.744,23.438,32.227,26.367,15.625,-1.953,0
61483.748,29.785,29.785,27.344,33.203,-0.488,0
61483.752,50.293,25.879,24.902,54.688,85.449,0
61483.756,46.387,27.344,25.879,37.598,92.773,0
61483.760,27.832,32.227,29.297,17.090,6.836,0
61483.764,31.250,32.715,30.273,29.785,-22.461,0
61483.768,43.945,29.297,27.832,50.293,5.859,0
61483.772,44.922,28.809,27.832,44.434,43.457,0
61483.776,27.832,32.715,31.738,17.578,1.953,0
61483.780,21.484,32.227,33.691,15.625,-12.695,0
61483.783,33.691,28.320,30.273,38.086,53.711,0
61483.787,39.062,24.902,25.879,37.598,119.141,0
61483.791,25.391,25.879,23.438,13.184,73.730,0
61483.795,18.066,28.320,23.438,9.277,-27.344,0
61483.799,26.367,29.785,30.762,24.902,-34.668,0
61483.803,37.109,25.879,31.250,33.691,29.785,0
61483.807,27.832,24.414,27.832,22.461,30.762,0
61483.811,11.719,31.250,32.715,7.812,-25.879,0
61483.815,15.137,35.156,36.133,20.996,3.906,0
61483.819,26.367,32.715,32.715,42.969,77.148,0
61483.822,24.414,30.273,27.344,30.762,42.480,0
61483.826,13.672,33.691,30.762,4.883,-32.227,0
61483.830,19.043,38.086,38.574,13.184,-15.137,0
61483.834,35.156,34.668,34.668,41.016,42.480,0
61483.838,38.086,32.227,28.320,44.922,43.945,0
61483.842,21.484,36.133,30.273,23.926,15.625,0
61483.846,12.695,36.621,33.691,11.719,20.508,0
61483.850,27.344,32.715,32.227,34.180,63.965,0
61483.854,38.574,29.785,30.273,48.340,93.262,0
61483.858,23.438,31.250,31.250,29.297,48.828,0
61483.862,12.207,32.715,33.203,22.949,-18.555,0
61483.865,23.926,33.203,35.156,40.527,10.254,0
61483.869,38.086,32.715,35.645,53.711,70.801,0
61483.873,27.344,30.762,32.715,33.203,39.062,0
61483.877,15.137,31.250,28.320,14.648,-48.828,0
61483.881,27.344,31.250,26.855,28.320,-20.020,0
61483.885,44.922,31.738,36.621,46.387,64.941,0
61483.889,38.574,33.203,40.527,40.039,54.688,0
61483.893,18.066,33.691,41.016,19.043,6.836,0
61483.897,19.531,35.156,38.574,18.555,-13.672,0
61483.901,37.598,33.203,34.180,36.621,7.812,0
61483.905,46.875,27.832,28.809,41.016,35.156,0
61483.908,30.762,31.250,30.762,18.066,-32.227,0
61483.912,21.484,37.598,36.621,8.301,-55.176,0
61483.916,36.621,34.668,31.738,28.320,8.301,0
61483.920,44.922,29.785,21.484,42.969,15.137,0
61483.924,39.062,29.785,19.531,31.738,-1.465,0
61483.928,29.297,33.691,27.344,17.578,-3.418,0
61483.932,33.203,34.668,29.785,29.297,40.527,0
61483.936,47.852,29.785,22.949,45.410,85.938,0
61483.940,49.805,30.762,20.996,39.062,65.430,0
61483.944,35.645,33.203,25.879,17.578,-29.785,0
61483.947,31.250,29.785,20.996,19.531,-44.922,0
61483.951,40.039,30.762,17.090,46.387,52.246,0
61483.955,37.109,32.715,24.902,47.363,78.125,0
61483.959,18.066,31.738,29.297,29.297,47.852,0
61483.963,14.648,33.203,30.273,26.367,-1.953,0
61483.967,32.715,31.250,27.832,41.992,22.461,0
61483.971,40.039,25.879,22.949,42.969,72.754,0
61483.975,16.113,27.344,23.926,20.508,42.969,0
61483.979,4.395,30.762,25.879,10.254,12.207,0
61483.983,20.508,30.273,24.902,22.949,22.461,0
61483.987,35.645,29.785,22.949,36.621,62.988,0
61483.990,26.855,30.273,26.367,21.973,82.520,0
61483.994,11.230,33.691,27.832,6.836,4.883,0
61483.998,11.719,33.691,25.391,20.508,-22.949,0
61484.002,24.902,27.344,21.484,37.598,103.516,0
61484.006,23.926,26.855,20.508,27.344,63.477,0
61484.010,10.742,32.715,24.902,8.789,-39.551,0
61484.014,10.742,31.250,23.438,14.160,-14.648,0
61484.018,24.902,25.391,20.508,32.715,27.344,0
61484.022,35.156,25.391,18.066,37.109,92.285,0
61484.026,26.367,26.367,20.020,17.090,61.523,0
61484.030,20.508,29.785,30.273,16.113,-25.391,0
61484.033,36.621,31.738,37.598,45.898,-1.953,0
61484.037,50.293,28.809,31.738,49.805,25.879,0
61484.041,32.715,27.832,26.367,20.996,-0.977,0
61484.045,15.625,30.273,28.809,11.230,1.465,0
61484.049,22.461,32.715,29.297,37.598,0.977,0
61484.053,35.156,27.832,25.391,54.199,59.082,0
61484.057,28.809,26.855,19.531,32.227,54.688,0
61484.061,9.277,33.691,24.902,18.066,2.441,0
61484.065,15.625,34.180,34.180,40.527,52.246,0
61484.069,36.621,31.250,34.668,64.453,71.289,0
61484.072,36.621,34.180,32.715,48.828,61.523,0
61484.076,20.996,35.645,35.156,25.391,20.996,0
61484.080,24.902,34.180,36.133,29.785,-38.574,0
61484.084,41.992,33.203,37.109,53.223,37.598,0
61484.088,43.457,33.203,31.738,49.805,68.848,0
61484.092,29.297,35.156,30.273,27.344,48.828,0
61484.096,28.809,32.715,28.809,29.297,5.371,0
61484.100,42.969,30.762,22.461,41.016,-4.395,0
61484.104,47.363,30.762,29.297,49.805,68.848,0
61484.108,32.227,31.250,35.156,35.645,24.414,0
61484.112,19.531,32.715,38.086,19.043,20.508,0
61484.115,29.785,29.785,38.086,35.156,7.812,0
61484.119,41.504,24.902,26.855,50.293,41.992,0
61484.123,32.715,25.391,24.414,34.668,43.945,0
61484.127,19.531,31.738,34.180,18.066,-13.184,0
61484.131,23.438,35.645,36.133,25.879,25.879,0
61484.135,34.668,30.273,28.809,35.645,58.105,0
61484.139,30.762,27.344,25.391,32.715,108.398,0
61484.143,10.742,27.344,27.832,20.508,49.316,0
61484.147,11.230,29.297,34.180,22.461,-42.480,0
61484.151,35.156,30.762,34.180,45.898,15.625,0
61484.155,37.598,29.297,21.484,54.199,58.105,0
61484.158,16.113,31.250,19.531,36.133,33.203,0
61484.162,13.184,33.691,28.320,23.926,42.969,0
61484.166,26.855,35.645,29.785,37.109,44.922,0
61484.170,39.551,33.691,23.926,42.480,86.426,0
61484.174,28.809,29.297,15.137,26.855,36.133,0
61484.178,7.324,27.344,17.578,14.648,-25.879,0
61484.182,15.625,27.832,27.832,23.438,4.883,0
61484.186,37.109,27.832,30.762,41.016,46.387,0
61484.190,33.203,29.785,28.809,33.203,44.922,0
61484.194,20.020,33.691,34.668,14.160,-6.348,0
61484.197,24.414,33.203,30.273,20.020,-7.812,0
61484.201,40.527,32.227,23.438,39.551,54.199,0
61484.205,42.969,30.762,23.926,33.691,33.203,0
61484.209,23.438,32.715,27.832,14.160,-0.488,0
61484.213,18.066,36.133,31.250,21.484,-20.996,0
61484.217,31.250,35.156,27.832,41.504,30.273,0
61484.221,43.457,30.273,25.391,41.992,125.488,0
61484.225,26.367,28.320,27.832,19.043,63.965,0
61484.229,5.371,28.809,31.250,13.184,-22.461,0
61484.233,19.531,30.273,29.785,38.574,-20.996,0
61484.237,37.598,26.855,21.973,50.781,39.062,0
61484.240,24.414,28.320,20.996,29.785,-3.906,0
61484.244,10.254,30.273,23.926,11.230,-15.625,0
61484.248,20.508,30.273,24.902,24.902,41.016,0
61484.252,35.156,28.809,22.949,45.410,39.062,0
61484.256,29.297,26.855,23.438,30.273,-11.719,0
61484.260,11.719,29.785,31.250,10.742,-59.570,0
61484.264,14.160,28.320,34.668,20.508,-81.543,0
61484.268,29.785,27.344,31.250,42.480,-4.395,0
61484.272,29.785,25.391,27.832,40.527,30.273,0
61484.276,22.461,26.855,32.227,18.066,-18.066,0
61484.280,20.020,31.250,36.133,17.578,-6.348,0
61484.283,22.949,28.809,29.785,35.156,55.176,0
61484.287,42.480,27.344,26.855,40.527,52.246,0
61484.291,36.621,32.227,29.297,14.648,23.438,0
61484.295,23.926,31.250,31.738,1.953,26.367,0
61484.299,23.438,26.855,33.203,26.855,24.414,0
61484.303,31.250,28.809,28.320,37.598,62.500,0
61484.307,29.785,33.691,27.832,24.414,70.801,0
61484.311,7.324,35.645,36.621,17.090,34.180,0
61484.315,5.859,31.738,34.180,26.855,9.766,0
61484.319,23.926,30.273,30.273,41.992,41.504,0
61484.322,31.738,31.738,31.250,30.762,63.477,0
61484.326,20.508,34.180,30.273,17.090,20.996,0
61484.330,13.184,34.668,30.762,22.949,-45.410,0
61484.334,26.855,31.738,26.367,39.062,-20.996,0
61484.338,38.086,30.762,22.461,36.133,85.449,0
61484.342,20.996,34.668,27.832,12.207,25.391,0
61484.346,10.742,32.227,29.297,3.906,-13.184,0
61484.350,31.738,32.715,26.855,26.367,61.523,0
61484.354,50.293,35.645,26.367,41.504,68.848,1
61484.358,39.062,32.227,28.320,18.555,61.523,0
61484.362,20.508,27.832,27.344,3.906,-12.695,0
61484.365,21.484,27.832,25.879,25.879,-1.953,0
61484.369,35.156,30.273,28.320,44.922,77.637,0
61484.373,33.203,33.691,36.621,30.273,57.129,0
61484.377,23.926,33.691,39.062,12.695,-0.977,0
61484.381,27.344,30.273,30.273,22.461,-18.555,0
61484.385,37.598,27.344,25.879,37.598,36.133,0
61484.389,31.250,26.855,26.855,30.762,52.734,0
61484.393,15.625,33.203,30.273,10.742,20.020,0
61484.397,18.066,32.227,28.320,5.371,-10.742,0
61484.401,34.668,28.320,27.344,33.203,29.785,0
61484.405,43.457,25.879,26.855,40.039,106.934,0
61484.408,23.926,26.855,24.902,19.043,87.891,0
61484.412,19.531,34.180,34.180,20.020,52.734,0
61484.416,32.715,35.156,43.457,38.574,12.695,0
61484.420,42.480,30.273,39.551,50.293,51.758,0
61484.424,37.598,31.738,35.156,31.250,70.312,0
61484.428,23.438,33.691,37.598,17.578,0.977,0
61484.432,23.438,33.203,40.527,35.645,6.836,0
61484.436,38.086,31.250,35.645,52.734,26.855,0
61484.440,44.434,29.785,32.227,40.527,66.406,0
61484.444,32.227,33.203,32.715,20.508,-8.301,0
61484.447,26.855,33.691,33.691,24.414,-46.875,0
61484.451,30.273,29.297,33.203,42.969,44.922,0
61484.455,34.180,26.367,32.227,43.945,43.457,0
61484.459,22.461,30.273,38.086,20.508,-48.340,0
61484.463,19.043,35.156,40.527,19.531,-85.938,0
61484.467,32.227,34.668,34.668,38.574,47.363,0
61484.471,40.527,33.691,31.738,44.922,127.441,0
61484.475,27.344,35.645,36.621,27.344,47.363,0
61484.479,22.461,36.621,37.598,17.090,-32.715,0
61484.483,37.109,38.086,40.039,42.480,-23.438,0
61484.487,39.062,36.621,38.574,60.059,54.199,0
61484.490,16.113,34.668,27.344,31.738,34.180,0
61484.494,-0.977,33.203,28.320,6.348,4.395,0
61484.498,3.906,32.227,33.691,17.578,41.016,0
61484.502,22.949,31.250,32.715,39.062,46.387,0
61484.506,23.438,28.320,31.250,32.715,9.766,0
61484.510,4.395,30.273,32.227,6.836,-39.062,0
61484.514,4.395,31.738,31.250,15.137,-15.137,0
61484.518,26.855,30.762,28.320,43.457,43.457,0
61484.522,37.598,29.785,27.832,39.062,68.848,0
61484.526,22.461,31.738,33.203,17.090,20.020,0
61484.530,15.625,34.668,36.133,17.578,2.930,0
61484.533,36.621,34.180,29.785,35.156,34.180,0
61484.537,51.758,29.785,25.879,38.574,82.031,0
61484.541,29.785,29.297,27.344,22.949,92.285,0
61484.545,10.254,30.273,31.250,9.766,63.477,0
61484.549,22.461,30.762,32.715,30.273,75.195,0
61484.553,44.922,29.297,27.832,47.363,101.562,0
61484.557,37.109,28.320,28.320,29.785,93.262,0
61484.561,20.020,31.250,35.645,16.113,35.156,0
61484.565,23.926,27.832,36.621,24.902,30.273,0
61484.569,40.527,25.879,35.645,48.340,65.430,0
61484.572,41.016,28.809,39.062,40.527,18.066,0
61484.576,22.461,26.367,36.621,11.719,11.230,0
61484.580,19.043,26.855,34.180,13.184,31.250,0
61484.584,29.785,25.391,32.227,38.086,48.340,0
61484.588,32.227,22.461,30.762,41.504,78.613,0
61484.592,17.090,27.832,31.250,24.414,-7.812,0
61484.596,17.090,32.715,32.715,18.555,-43.457,0
61484.600,30.762,28.809,32.227,37.598,63.965,0
61484.604,42.969,27.832,26.855,53.711,91.309,0
61484.608,34.668,32.227,26.855,37.109,18.555,0
61484.612,21.973,35.156,33.203,19.043,18.066,0
61484.615,29.297,32.227,30.762,26.367,14.648,0
61484.619,38.086,28.320,26.855,43.457,50.781,0
61484.623,29.297,27.344,24.414,36.621,38.086,0
61484.627,7.812,28.809,22.461,19.531,-19.531,0
61484.631,17.578,32.715,29.785,24.902,-0.977,0
61484.635,43.457,33.203,31.250,47.363,25.879,0
61484.639,46.875,33.203,30.273,45.898,44.434,0
61484.643,26.855,35.156,35.645,20.508,36.133,0
61484.647,19.531,36.621,34.180,26.367,2.930,0
61484.651,33.691,36.133,30.762,44.922,45.410,0
61484.655,43.457,32.715,27.344,40.527,97.168,0
61484.658,31.738,33.203,28.320,23.438,34.668,0
61484.662,20.508,37.109,33.691,17.090,-26.855,0
61484.666,31.250,33.203,31.250,33.691,-11.719,0
61484.670,44.922,30.762,26.855,43.457,46.387,0
61484.674,31.738,34.668,28.320,24.902,26.855,0
61484.678,16.602,34.668,35.156,9.766,29.297,0
61484.682,27.832,33.691,36.133,32.715,60.059,0
61484.686,42.969,32.715,27.344,51.270,69.824,0
61484.690,36.621,29.785,20.996,36.621,97.168,0
61484.694,22.461,30.762,23.926,20.508,15.137,0
61484.697,28.809,33.691,33.203,23.926,-41.992,0
61484.701,35.156,31.738,29.785,45.410,-2.441,0
61484.705,35.645,31.250,24.414,44.922,-3.906,0
61484.709,30.273,35.645,34.180,27.832,16.113,0
61484.713,23.926,36.133,37.598,25.879,33.691,0
61484.717,35.156,32.227,28.320,41.504,15.625,0
61484.721,45.898,35.156,27.344,49.805,62.988,0
61484.725,31.250,39.062,33.203,27.832,20.996,0
61484.729,18.066,35.645,30.762,17.090,2.441,0
61484.733,36.133,35.156,29.297,36.621,23.438,0
61484.737,52.246,35.645,28.809,50.781,30.762,0
61484.740,37.109,36.133,28.320,39.062,20.996,0
61484.744,19.043,35.156,24.414,18.555,-2.930,0
61484.748,29.297,36.621,16.602,26.855,29.297,0
61484.752,49.805,37.598,22.949,46.387,62.988,0
61484.756,55.664,35.156,27.832,36.133,40.039,0
61484.760,33.203,37.598,31.738,23.926,-8.301,0
61484.764,25.879,37.109,34.180,24.414,-15.137,0
61484.768,43.945,31.250,32.715,41.504,31.250,0
61484.772,49.805,28.809,30.273,44.922,57.129,0
61484.776,32.715,30.273,32.715,21.484,35.645,0
61484.780,24.414,35.645,38.574,20.996,20.020,0
61484.783,39.551,34.668,35.645,41.992,73.242,0
61484.787,45.410,29.785,27.344,44.434,38.574,0
61484.791,29.297,32.715,31.250,21.484,-53.711,0
61484.795,14.648,33.203,36.621,13.184,-23.438,0
61484.799,21.973,30.762,35.645,32.715,74.707,0
61484.803,35.156,25.391,33.691,43.945,69.336,0
61484.807,27.344,21.973,30.762,27.344,16.113,0
61484.811,15.625,30.762,26.855,8.789,-22.949,0
61484.815,23.926,31.738,22.949,19.531,-35.156,0
61484.819,33.203,23.438,22.949,33.691,51.270,0
61484.822,29.297,23.926,26.855,26.855,66.406,0
61484.826,12.695,25.391,34.668,10.742,-20.508,0
61484.830,13.672,26.367,38.574,15.625,8.301,0
61484.834,27.344,27.344,32.715,36.133,16.113,0
61484.838,32.227,26.367,23.926,30.273,11.230,0
61484.842,23.438,31.250,24.902,9.277,53.223,0
61484.846,13.672,35.156,28.809,3.906,68.848,0
61484.850,22.461,34.180,33.203,29.297,102.539,0
61484.854,37.109,29.785,29.785,43.945,66.895,0
61484.858,19.531,26.367,20.508,16.113,56.641,0
61484.862,0.000,30.273,23.438,0.000,36.621,0
61484.865,10.742,30.762,28.809,22.461,43.945,0
61484.869,29.297,25.391,21.973,40.527,114.258,0
61484.873,28.320,29.785,21.484,28.320,112.793,0
61484.877,16.602,35.156,34.180,18.066,12.695,0
61484.881,17.578,35.645,38.574,22.461,-52.734,0
61484.885,35.156,33.203,35.156,41.992,39.551,0
61484.889,38.086,25.879,33.691,44.922,95.703,0
61484.893,20.020,26.855,34.668,18.066,-7.324,0
61484.897,14.160,26.367,27.832,8.301,-8.789,0
61484.901,31.738,25.391,20.996,34.180,28.320,0
61484.905,47.852,29.297,27.344,50.293,24.414,0
61484.908,35.156,31.250,36.621,33.203,22.949,0
61484.912,29.297,33.203,39.062,20.996,-19.043,0
61484.916,40.527,29.297,33.691,39.062,26.855,2
61484.920,46.875,28.320,25.391,56.641,78.125,0
61484.924,38.086,30.762,27.832,35.156,62.988,0
61484.928,21.973,32.715,35.156,13.184,7.324,0
61484.932,30.273,33.203,32.715,24.902,37.598,0
61484.936,46.387,28.320,27.344,44.434,92.285,0
61484.940,42.969,27.344,32.715,30.762,60.059,0
61484.944,27.344,31.250,36.621,7.812,37.598,0
61484.947,28.320,36.621,36.621,22.461,10.254,0
61484.951,45.410,36.133,35.156,48.340,35.645,0
61484.955,53.223,28.809,29.297,40.527,61.523,0
61484.959,38.086,33.203,30.273,21.973,13.672,0
61484.963,30.273,35.645,34.180,19.531,-15.625,0
61484.967,38.574,28.809,26.855,39.062,75.195,0
61484.971,50.781,29.785,23.926,53.223,45.898,0
61484.975,42.969,31.250,27.344,27.344,-5.859,0
61484.979,20.996,34.668,33.203,15.625,2.441,0
61484.983,24.414,35.645,34.180,41.504,34.180,0
61484.987,44.434,33.203,26.855,59.570,87.891,0
61484.990,32.715,34.668,28.809,36.621,45.410,0
61484.994,24.902,40.039,35.156,18.066,21.973,0
61484.998,39.062,36.621,33.691,33.203,45.410,0
61485.002,49.805,32.227,26.367,52.246,92.773,0
61485.006,44.434,30.273,20.996,44.922,105.469,0
61485.010,23.438,31.738,29.785,20.508,1.953,0
61485.014,22.461,31.250,36.621,19.043,-24.902,0
61485.018,40.039,29.785,31.250,37.598,104.980,0
61485.022,42.969,30.762,27.344,41.016,96.680,0
61485.026,25.879,33.203,35.156,22.461,15.625,0
61485.030,17.578,32.715,35.156,16.602,26.367,0
61485.033,35.156,31.250,21.973,33.203,26.855,0
61485.037,48.340,30.273,21.973,44.434,52.246,0
61485.041,32.715,28.809,26.855,23.438,14.160,0
61485.045,23.438,30.762,30.762,5.859,-29.785,0
61485.049,31.738,30.762,34.668,26.855,-5.859,0
61485.053,43.945,28.320,32.715,45.898,39.551,0
61485.057,37.109,30.273,32.227,31.250,2.930,0
61485.061,22.461,32.227,29.297,14.648,-24.414,0
61485.065,26.855,31.738,29.785,28.320,-2.930,0
61485.069,41.992,30.762,34.180,46.875,29.785,0
61485.072,45.898,29.785,26.855,38.086,81.055,0
61485.076,28.809,33.203,28.809,21.484,69.824,0
61485.080,27.832,32.715,40.527,20.020,34.180,0
61485.084,41.992,29.785,38.086,38.574,45.410,0
61485.088,46.387,28.320,32.227,43.457,27.832,0
61485.092,30.762,28.320,33.691,19.043,-35.156,0
61485.096,18.555,31.738,42.480,16.113,-38.086,0
61485.100,38.086,32.227,40.527,35.156,30.762,0
61485.104,55.664,27.344,29.297,42.480,81.543,0
61485.108,34.180,28.809,30.762,31.250,23.926,0
61485.112,17.578,32.715,35.156,21.973,-7.324,0
61485.115,29.785,31.250,34.668,32.715,-19.531,0
61485.119,52.734,29.785,38.574,59.082,-44.434,0
61485.123,46.387,31.738,34.180,45.410,7.324,0
61485.127,23.438,35.645,30.273,16.113,37.598,0
61485.131,24.902,38.086,36.621,38.574,43.945,0
61485.135,41.992,32.227,32.715,62.012,59.570,0
61485.139,45.898,29.785,27.344,43.457,48.340,0
61485.143,32.227,34.180,31.250,17.090,92.773,0
61485.147,26.855,34.668,33.691,15.137,98.145,0
61485.151,38.086,34.180,32.715,45.898,59.570,0
61485.155,51.758,30.762,32.227,57.129,68.359,0
61485.158,33.691,32.715,24.902,31.250,40.527,0
61485.162,16.602,31.738,24.414,29.297,-15.137,0
61485.166,32.715,27.344,30.273,52.246,-3.906,0
61485.170,52.734,30.762,30.273,62.012,33.203,0
61485.174,44.434,35.645,31.738,41.504,48.828,0
61485.178,33.691,34.180,34.180,27.832,34.180,0
61485.182,42.969,34.668,39.551,45.410,26.855,0
61485.186,53.711,35.645,40.039,64.453,58.105,0
61485.190,46.875,35.645,35.156,49.316,89.355,0
61485.194,30.762,32.227,34.668,24.414,73.242,0
61485.197,32.715,29.297,36.621,34.180,39.062,0
61485.201,44.434,28.809,38.086,52.734,70.801,0
61485.205,43.945,27.344,33.203,44.434,62.988,0
61485.209,20.020,29.297,32.715,23.926,2.441,0
61485.213,14.648,35.156,36.133,18.555,-9.766,0
61485.217,40.527,38.086,32.715,37.598,7.812,0
61485.221,54.688,34.180,23.438,41.504,41.504,0
61485.225,39.551,34.668,22.461,17.090,4.883,0
61485.229,29.785,37.598,29.297,7.812,-25.391,0
61485.233,35.645,39.551,31.250,29.785,40.039,0
61485.237,47.852,35.156,28.809,42.480,79.590,0
61485.240,38.086,31.250,31.250,24.414,42.480,0
61485.244,17.090,35.645,35.645,10.254,-23.438,0
61485.248,22.949,37.109,35.156,24.414,-26.367,0
61485.252,46.387,35.645,32.227,45.410,36.621,0
61485.256,45.898,36.133,27.832,31.738,6.836,0
61485.260,18.066,37.109,30.762,14.648,-5.371,0
61485.264,15.625,36.621,37.109,25.879,-3.418,0
61485.268,36.621,35.645,35.156,43.457,30.273,0
61485.272,45.898,34.668,30.273,41.992,35.645,0
61485.276,34.180,34.180,31.738,23.438,0.000,0
61485.280,22.949,34.668,29.297,19.531,31.738,0
61485.283,39.062,33.691,26.367,37.598,73.730,0
61485.287,52.734,32.715,27.344,52.734,55.176,0
61485.291,41.504,33.203,32.227,31.738,40.527,0
61485.295,28.320,32.227,38.574,9.277,23.438,0
61485.299,37.109,33.203,37.598,29.785,30.273,0
61485.303,60.547,30.762,32.227,51.758,82.520,0
61485.307,53.223,30.273,29.785,30.273,66.895,0
61485.311,28.809,34.668,34.180,14.160,7.812,0
61485.315,32.715,34.180,37.109,28.809,61.035,0
61485.319,47.363,32.715,34.180,46.875,106.445,0
61485.322,49.805,32.227,29.297,37.109,25.879,0
61485.326,35.645,32.227,28.809,21.484,-17.578,0
61485.330,30.762,36.133,37.109,34.668,25.391,0
61485.334,47.852,34.180,36.133,54.688,103.027,0
61485.338,56.641,29.785,28.809,50.781,109.375,0
61485.342,44.434,31.738,31.738,30.762,40.039,0
61485.346,31.250,30.762,30.273,26.855,2.441,0
61485.350,42.480,26.367,22.949,43.945,-2.930,0
61485.354,55.664,25.391,17.578,54.688,21.484,0
61485.358,42.480,27.344,23.438,38.086,-28.320,0
61485.362,33.203,28.809,32.715,19.043,-100.586,0
61485.365,46.875,30.273,33.691,35.156,-33.691,0
61485.369,58.594,32.715,29.785,57.617,21.484,0
61485.373,44.922,35.645,29.785,43.457,29.297,0
61485.377,30.762,35.645,29.297,21.973,-12.207,0
61485.381,36.621,35.156,22.461,30.273,3.418,0
61485.385,46.387,31.738,20.996,50.781,100.586,0
61485.389,46.387,30.762,26.367,46.875,53.711,0
61485.393,30.762,31.250,29.297,22.949,-20.996,0
61485.397,27.344,31.738,30.762,27.344,4.395,0
61485.401,38.574,30.273,28.809,47.852,9.277,0
61485.405,42.969,29.785,26.367,48.828,20.996,0
61485.408,28.320,35.645,30.762,27.344,10.742,0
61485.412,13.184,37.109,33.203,12.695,-9.766,0
61485.416,28.809,36.133,26.367,24.414,12.207,0
61485.420,47.852,38.086,24.414,41.504,86.426,0
61485.424,32.715,39.551,24.414,27.832,73.242,0
61485.428,17.578,40.039,24.902,13.672,36.133,0
61485.432,27.344,39.062,32.227,29.297,6.836,0
61485.436,41.016,37.109,35.156,46.875,19.531,0
61485.440,38.086,35.645,34.180,35.156,51.270,0
61485.444,21.484,34.668,37.109,15.137,-7.324,0
61485.447,19.043,32.715,40.039,23.926,24.902,0
61485.451,40.039,32.715,30.273,44.922,126.465,0
61485.455,45.898,32.715,22.461,37.598,130.371,0
61485.459,23.438,31.250,30.762,19.531,25.391,0
61485.463,11.719,28.809,30.762,18.555,-33.691,0
61485.467,25.879,31.250,29.297,35.156,11.719,0
61485.471,38.086,34.180,32.715,40.039,66.895,0
61485.475,23.926,35.645,33.203,17.578,62.500,0
61485.479,12.695,36.621,34.180,9.766,-1.465,0
61485.483,35.645,34.180,37.598,28.320,-5.371,0
61485.487,49.805,31.738,31.250,38.086,22.949,0
61485.490,22.461,31.250,30.273,21.973,23.926,0
61485.494,6.836,31.250,35.156,8.789,-3.418,0
61485.498,17.090,30.762,30.273,22.461,-6.348,0
61485.502,34.180,27.832,21.973,44.434,57.617,0
61485.506,34.668,29.785,24.414,37.109,22.949,0
61485.510,18.555,33.691,39.551,16.602,-6.836,0
61485.514,20.508,30.273,41.992,19.531,22.949,0
61485.518,37.109,27.344,36.133,43.457,25.879,0
61485.522,40.527,26.367,35.156,46.387,35.156,0
61485.526,24.414,24.902,34.180,22.461,26.855,0
61485.530,18.066,28.809,35.156,16.602,-2.441,0
61485.533,38.086,28.320,35.156,31.738,29.297,0
61485.537,53.711,20.508,23.438,36.621,105.957,0
61485.541,32.715,23.926,25.391,24.902,109.375,0
61485.545,20.020,31.738,33.203,15.625,-7.812,0
61485.549,29.297,31.738,26.855,28.809,0.000,0
61485.553,39.551,28.320,26.855,40.039,65.430,0
61485.557,31.738,24.902,33.691,23.438,81.543,0
61485.561,12.207,29.297,39.062,6.348,25.391,0
61485.565,20.020,31.738,36.621,19.043,5.859,1
61485.569,42.480,26.367,34.668,44.434,60.059,0
61485.572,36.621,26.367,36.621,41.504,92.285,0
61485.576,17.090,30.762,37.598,20.020,50.781,0
61485.580,13.184,34.668,34.180,17.578,-8.789,0
61485.584,25.879,33.203,28.809,40.039,13.672,0
61485.588,44.434,32.715,26.367,50.781,10.742,0
61485.592,35.156,36.133,31.250,32.227,51.270,0
61485.596,23.438,37.598,33.691,23.438,30.762,0
61485.600,30.273,34.180,31.250,41.016,17.090,0
61485.604,38.086,29.297,28.809,50.293,94.238,0
61485.608,30.762,29.297,28.809,27.832,72.266,0
61485.612,16.113,31.250,34.668,12.207,-8.789,0
61485.615,25.391,33.203,36.621,26.855,4.883,0
61485.619,45.898,34.180,36.133,47.363,46.387,0
61485.623,38.086,30.273,36.133,33.691,33.691,0
61485.627,16.602,31.738,30.273,7.812,34.180,0
61485.631,16.113,32.227,23.926,16.602,5.371,0
61485.635,34.180,28.809,27.832,44.434,15.137,0
61485.639,41.992,28.809,32.227,42.480,61.035,0
61485.643,26.855,33.203,35.156,20.020,5.859,0
61485.647,24.902,34.668,40.527,21.973,-25.391,0
61485.651,43.457,34.668,44.922,45.410,31.738,0
61485.655,56.152,33.203,37.598,50.293,33.203,0
61485.658,41.504,31.738,31.250,30.762,-18.066,0
61485.662,20.996,32.715,34.180,22.949,-12.695,0
61485.666,27.832,30.273,32.715,41.504,38.574,0
61485.670,47.852,27.832,33.203,51.758,48.340,0
61485.674,32.227,27.832,33.203,27.344,-23.926,0
61485.678,6.836,27.344,31.738,6.836,-65.430,0
61485.682,12.695,25.391,30.273,20.996,-2.441,0
61485.686,34.180,25.391,27.344,44.922,72.754,0
61485.690,26.855,27.344,24.414,34.180,96.680,0
61485.694,3.418,31.738,26.367,11.230,72.754,0
61485.697,12.695,34.668,31.738,13.184,84.473,0
61485.701,35.156,36.621,35.156,37.598,82.031,0
61485.705,38.574,35.645,36.621,43.945,54.199,0
61485.709,25.391,38.086,35.156,19.043,-1.465,0
61485.713,22.949,35.156,33.691,16.602,-20.020,0
61485.717,42.480,32.715,30.762,41.992,53.711,0
61485.721,56.152,33.691,28.809,47.363,117.188,0
61485.725,39.551,30.762,29.297,22.949,16.602,0
61485.729,31.738,32.715,33.203,17.578,-71.777,0
61485.733,46.387,31.250,30.273,41.992,-55.176,0
61485.737,56.641,27.832,22.461,53.711,5.859,0
61485.740,45.410,30.762,23.926,42.480,32.715,0
61485.744,30.762,33.691,30.762,29.297,-9.766,0
61485.748,30.273,31.738,36.621,40.527,-21.484,0
61485.752,41.992,33.691,33.203,55.664,39.551,0
61485.756,42.969,32.715,25.879,36.621,28.809,0
61485.760,30.762,31.738,33.203,15.137,-20.508,0
61485.764,31.250,32.715,41.504,27.832,-10.742,0
61485.768,43.945,28.320,38.086,52.246,82.520,0
61485.772,48.828,27.344,31.250,52.734,164.062,0
61485.776,32.715,30.273,32.227,24.902,78.613,0
61485.780,28.809,26.855,34.180,15.625,-47.363,0
61485.783,45.898,25.391,31.738,42.480,-17.090,0
61485.787,53.223,25.391,24.414,51.758,139.648,0
61485.791,34.668,28.809,25.879,32.715,112.793,0
61485.795,24.414,32.715,34.180,19.531,-13.184,0
61485.799,40.527,29.297,32.227,34.180,23.438,0
61485.803,58.594,25.879,28.320,55.176,37.109,0
61485.807,50.781,26.367,30.273,42.480,67.871,0
61485.811,31.738,30.762,32.715,26.367,34.180,0
61485.815,34.668,30.762,32.715,39.062,41.992,0
61485.819,55.176,28.320,33.203,57.617,75.684,0
61485.822,49.805,27.344,29.297,50.293,55.176,0
61485.826,25.879,27.832,30.762,23.926,41.992,0
61485.830,25.879,27.344,36.621,22.949,-2.930,0
61485.834,41.992,22.461,29.297,42.969,11.719,0
61485.838,44.434,20.996,20.996,40.039,16.113,0
61485.842,29.297,26.855,26.367,21.484,18.066,0
61485.846,22.949,27.832,26.367,17.090,10.742,0
61485.850,33.203,23.926,24.414,41.016,6.348,0
61485.854,46.387,26.367,29.785,55.176,46.387,0
61485.858,35.156,26.855,33.691,29.785,-3.906,0
61485.862,20.996,27.344,36.133,11.230,-36.621,0
61485.865,28.320,32.227,40.527,30.762,15.625,0
61485.869,39.062,31.738,37.598,48.340,29.297,0
61485.873,29.785,33.691,26.367,27.344,12.207,0
61485.877,16.113,39.551,25.391,7.324,-16.113,0
61485.881,20.020,41.992,27.832,16.602,-0.977,0
61485.885,32.715,37.109,25.879,38.086,53.711,0
61485.889,32.715,31.250,30.273,39.062,82.520,0
61485.893,23.438,37.109,35.645,14.648,49.805,0
61485.897,20.508,39.551,34.180,15.137,13.672,0
61485.901,26.855,35.645,31.250,43.457,75.195,0
61485.905,46.875,34.668,27.832,47.363,111.816,0
61485.908,36.133,38.086,30.273,25.391,80.078,0
61485.912,23.926,41.504,34.180,21.484,53.711,0
61485.916,35.645,39.062,34.668,43.945,35.156,0
61485.920,47.363,36.133,33.691,57.129,65.430,0
61485.924,42.480,38.086,31.250,43.457,2.930,0
61485.928,25.391,36.621,32.227,24.414,-53.711,0
61485.932,29.297,38.086,41.016,29.297,16.113,0
61485.936,47.852,37.109,37.109,47.363,38.086,0
61485.940,42.480,33.203,21.973,39.551,-5.371,0
61485.944,27.344,37.109,27.832,21.484,25.879,0
61485.947,21.973,40.039,34.668,20.020,62.988,0
61485.951,38.086,37.598,33.203,41.992,47.363,0
61485.955,44.434,32.715,34.180,43.457,37.598,0
61485.959,21.973,31.250,38.574,20.996,-24.414,0
61485.963,21.484,35.645,44.922,22.949,4.395,0
61485.967,39.062,36.133,41.504,46.875,42.480,0
61485.971,47.363,35.156,36.133,53.711,-11.230,0
61485.975,31.738,33.691,32.715,32.715,40.039,0
61485.979,16.113,31.250,34.180,23.926,48.340,0
61485.983,28.320,34.180,38.086,39.062,40.039,0
61485.987,45.410,31.738,29.785,48.828,7.324,0
61485.990,25.879,26.367,27.832,31.250,25.391,0
61485.994,8.301,28.809,32.227,16.602,16.113,0
61485.998,21.484,34.180,35.156,31.250,-3.418,0
61486.002,42.480,37.109,37.109,52.246,62.012,0
61486.006,43.457,37.109,29.785,44.434,26.367,0
61486.010,24.414,42.480,28.320,19.531,-56.641,0
61486.014,27.832,42.969,41.016,25.391,-57.617,0
61486.018,46.387,36.133,43.457,52.246,-4.883,0
61486.022,47.852,34.668,33.203,48.828,61.523,0
61486.026,33.203,36.133,26.855,21.484,35.156,0
61486.030,20.508,40.039,33.203,17.578,-29.297,0
61486.033,22.949,41.992,37.109,35.156,19.531,0
61486.037,34.668,40.039,31.738,38.574,32.227,0
61486.041,19.043,39.062,29.297,17.090,7.324,0
61486.045,5.859,39.551,29.297,9.277,-16.113,0
61486.049,17.090,40.039,30.273,23.438,-8.789,0
61486.053,23.438,38.574,26.367,33.691,60.059,0
61486.057,2.930,35.645,29.297,18.555,50.781,0
61486.061,-11.719,36.621,35.156,2.930,-9.766,0
61486.065,-7.324,36.621,36.133,4.883,-26.855,0
61486.069,2.441,38.086,31.738,11.719,-8.789,0
61486.072,0.488,37.598,30.762,3.418,22.949,0
61486.076,-23.438,32.715,45.898,-27.344,-28.809,0
61486.080,-43.457,33.691,44.434,-43.945,4.883,0
61486.084,-31.738,39.551,37.598,-26.367,38.574,0
61486.088,-35.156,35.645,45.410,-33.691,20.020,0
61486.092,-72.266,30.762,52.246,-71.777,36.133,0
61486.096,-94.727,32.715,49.316,-90.332,29.785,0
61486.100,-90.332,32.227,44.434,-76.172,35.645,0
61486.104,-78.125,30.762,42.969,-67.871,64.453,0
61486.108,-90.332,31.738,46.875,-92.285,62.988,0
61486.112,-106.934,35.156,45.898,-108.887,-27.344,0
61486.115,-106.445,34.668,43.457,-101.562,-103.516,0
61486.119,-98.145,31.738,37.109,-96.680,55.664,0
61486.123,-107.422,30.762,41.504,-109.375,96.191,0
61486.127,-125.000,32.715,56.152,-124.512,-41.016,0
61486.131,-119.141,36.621,55.176,-116.699,4.395,0
61486.135,-105.469,33.203,49.805,-100.098,84.961,0
61486.139,-108.398,23.926,47.852,-106.445,49.316,0
61486.143,-112.305,28.809,46.387,-120.117,-10.742,0
61486.147,-97.168,34.668,47.363,-111.328,-8.301,0
61486.151,-77.637,28.320,45.898,-85.449,9.766,0
61486.155,-76.660,24.902,38.574,-71.777,34.180,0
61486.158,-81.055,27.832,35.156,-81.055,37.109,0
61486.162,-74.219,31.738,34.180,-78.613,6.836,0
61486.166,-48.828,31.738,30.273,-46.875,50.293,0
61486.170,-28.320,28.809,29.297,-17.578,86.914,0
61486.174,-26.367,29.785,34.180,-21.973,86.914,0
61486.178,-20.996,28.809,41.016,-24.414,41.504,0
61486.182,0.000,27.832,39.551,0.000,70.312,0
61486.186,23.926,24.414,27.344,28.809,106.934,0
61486.190,24.902,24.414,30.273,26.855,40.039,0
61486.194,26.367,32.227,39.062,16.602,-3.906,0
61486.197,42.480,33.691,35.645,37.109,58.105,0
61486.201,54.199,31.250,21.484,60.547,67.871,0
61486.205,62.500,28.320,16.113,56.641,-17.090,0
61486.209,55.664,29.297,28.320,45.410,14.648,0
61486.213,57.129,28.320,35.156,50.293,59.570,2
61486.217,80.078,23.438,30.762,73.242,73.242,0
61486.221,87.891,20.996,23.438,86.426,95.215,0
61486.225,79.590,20.508,24.902,69.824,55.664,0
61486.229,73.730,22.461,30.273,63.477,-9.766,0
61486.233,80.566,21.973,30.762,81.055,-19.043,0
61486.237,89.355,19.531,23.438,91.309,67.871,0
61486.240,74.219,20.020,22.461,74.219,81.055,0
61486.244,61.035,22.949,29.297,61.523,25.879,0
61486.248,70.801,24.414,27.832,78.125,21.973,0
61486.252,86.426,24.414,20.020,97.168,49.805,0
61486.256,90.332,23.438,15.625,86.914,56.152,0
61486.260,80.078,26.855,17.090,66.895,19.531,0
61486.264,80.078,29.297,24.902,75.195,59.082,0
61486.268,92.773,26.367,30.273,99.121,76.660,0
61486.272,92.773,18.555,29.297,95.703,51.270,0
61486.276,71.777,20.996,30.762,71.777,10.742,0
61486.280,57.617,30.762,31.738,67.871,-8.789,0
61486.283,74.219,29.785,28.809,88.867,74.707,0
61486.287,90.332,23.926,23.926,99.121,86.914,0
61486.291,72.266,25.391,27.832,82.520,-5.859,0
61486.295,63.965,30.762,31.738,68.359,-46.875,0
61486.299,76.660,30.762,27.344,80.078,-9.766,0
61486.303,88.379,30.762,25.391,93.750,12.207,0
61486.307,81.055,35.156,22.949,75.684,28.320,0
61486.311,67.383,38.574,25.391,57.129,-19.043,0
61486.315,64.941,38.574,27.832,66.895,-26.855,0
61486.319,72.266,33.203,20.020,81.055,45.898,0
61486.322,69.824,32.715,16.602,74.219,37.598,0
61486.326,53.711,38.574,23.926,54.688,15.137,0
61486.330,50.781,38.086,28.320,57.129,-16.602,0
61486.334,60.547,34.180,23.926,77.148,18.066,0
61486.338,70.312,34.180,19.043,71.777,83.008,0
61486.342,65.918,36.133,24.414,52.246,8.789,0
61486.346,55.664,38.086,28.809,45.410,0.000,0
61486.350,58.105,37.598,16.602,58.594,58.594,0
61486.354,67.871,32.227,3.906,67.383,65.918,0
61486.358,55.176,31.250,15.137,49.316,41.016,0
61486.362,41.504,31.738,27.344,37.109,-7.324,0
61486.365,58.594,32.715,26.855,56.152,11.230,0
61486.369,76.172,33.691,25.879,76.660,27.832,0
61486.373,71.777,31.738,26.855,64.453,35.645,0
61486.377,56.152,32.715,28.320,46.875,6.348,0
61486.381,57.617,34.668,29.297,61.523,-8.301,0
61486.385,71.777,32.715,28.320,84.961,62.012,0
61486.389,68.359,34.180,24.414,74.219,43.945,0
61486.393,53.223,36.133,26.855,45.410,-26.367,0
61486.397,54.688,39.062,30.273,49.316,4.883,0
61486.401,72.266,41.992,26.855,75.195,70.801,0
61486.405,82.031,36.133,23.438,80.566,83.496,0
61486.408,65.430,34.668,25.391,61.523,40.527,0
61486.412,48.340,39.551,30.762,46.875,-48.828,0
61486.416,51.758,36.133,32.227,61.035,-39.551,0
61486.420,57.129,29.297,24.902,75.684,50.781,0
61486.424,50.293,29.785,20.020,52.734,47.363,0
61486.428,38.086,34.180,24.414,31.738,8.789,0
61486.432,47.363,36.621,30.762,48.828,48.828,0
61486.436,67.871,35.156,26.855,70.801,108.887,0
61486.440,58.105,32.715,22.461,55.176,89.844,0
61486.444,40.039,36.621,19.043,33.203,9.277,0
61486.447,47.363,39.062,13.672,38.086,-43.945,0
61486.451,64.941,37.598,19.043,58.105,11.230,0
61486.455,71.289,37.598,24.414,63.965,113.770,0
61486.459,54.688,34.668,28.809,44.922,61.523,0
61486.463,44.434,31.250,31.738,38.574,-15.137,0
61486.467,58.105,31.738,29.785,63.965,49.316,0
61486.471,66.406,32.227,27.344,72.754,102.051,0
61486.475,48.828,30.762,31.250,50.781,52.734,0
61486.479,35.645,28.809,34.668,41.016,1.953,0
61486.483,48.828,32.715,33.691,56.152,2.441,0
61486.487,60.059,30.273,33.203,67.383,55.176,0
61486.490,43.945,27.344,40.527,52.246,73.242,0
61486.494,28.809,29.297,41.504,32.715,38.086,0
61486.498,36.621,29.297,31.250,36.621,7.812,0
61486.502,51.270,27.344,25.879,51.270,28.809,0
61486.506,46.875,22.949,22.461,38.086,17.090,0
61486.510,25.879,27.832,24.902,17.578,-38.574,0
61486.514,18.555,30.273,32.227,22.461,54.199,0
61486.518,33.203,27.344,34.180,47.363,51.270,0
61486.522,43.457,30.273,35.645,51.270,26.367,0
61486.526,30.273,35.645,37.598,25.391,7.324,0
61486.530,22.949,39.551,36.133,23.438,-52.734,0
61486.533,39.062,43.457,34.668,48.340,0.000,0
61486.537,55.176,39.062,28.320,53.223,27.344,0
61486.541,40.039,35.156,25.879,33.203,-9.766,0
61486.545,26.367,37.598,30.273,22.949,-33.203,0
61486.549,39.551,39.062,30.762,43.457,-8.789,0
61486.553,54.688,36.621,32.715,62.988,113.770,0
61486.557,46.387,35.156,34.180,48.340,41.504,0
61486.561,28.320,36.621,35.645,31.250,-90.332,0
61486.565,29.297,35.156,36.133,42.480,-27.832,0
61486.569,45.898,34.180,37.109,67.383,55.176,0
61486.572,44.922,35.645,36.621,62.988,55.664,0
61486.576,32.227,35.645,37.109,38.574,-12.695,0
61486.580,28.320,31.250,37.598,43.457,0.977,0
61486.584,37.598,27.832,35.156,63.477,50.781,0
61486.588,45.410,26.367,33.691,67.383,60.547,0
61486.592,30.762,31.250,41.016,49.805,4.883,0
61486.596,20.020,34.668,43.945,35.156,-34.180,0
61486.600,35.645,35.645,37.598,51.758,15.625,0
61486.604,47.852,35.156,34.668,64.941,14.160,0
61486.608,25.391,30.762,35.156,46.387,36.133,0
61486.612,10.742,30.762,31.738,27.832,48.828,0
61486.615,26.855,34.668,27.344,44.434,34.668,0
61486.619,46.387,37.109,31.738,64.941,84.473,0
61486.623,41.992,35.156,34.180,45.410,97.656,0
61486.627,28.320,34.180,36.133,26.855,37.109,0
61486.631,25.879,38.086,37.598,35.645,39.551,0
61486.635,37.598,40.039,31.250,51.758,56.641,0
61486.639,39.551,32.715,27.344,41.504,35.645,0
61486.643,20.020,29.297,30.762,13.672,20.996,0
61486.647,14.648,35.156,28.809,18.066,22.949,0
61486.651,36.133,36.133,27.832,43.945,83.496,0
61486.655,49.316,33.203,26.855,46.875,81.543,0
61486.658,31.738,33.691,26.855,20.508,-12.207,0
61486.662,18.555,35.156,30.273,13.672,-12.695,0
61486.666,28.809,34.668,31.738,33.203,46.875,0
61486.670,38.086,30.273,30.273,43.457,84.473,0
61486.674,23.438,28.809,31.250,25.391,25.879,0
61486.678,8.789,31.250,36.133,9.277,-30.273,0
61486.682,12.207,32.715,33.203,21.973,-59.570,0
61486.686,27.344,29.297,24.414,40.527,12.207,0
61486.690,28.809,32.227,30.273,39.551,69.824,0
61486.694,17.090,34.668,35.645,17.090,-47.363,0
61486.697,16.602,29.785,31.250,14.648,-26.367,0
61486.701,26.367,26.367,21.484,39.551,58.105,0
61486.705,37.109,27.832,16.113,39.062,51.270,0
61486.709,26.855,27.832,24.414,16.602,76.172,0
61486.713,16.602,25.879,24.902,10.254,50.781,0
61486.717,33.691,28.809,26.367,31.250,17.578,0
61486.721,52.734,31.738,26.855,46.875,89.844,0
61486.725,42.969,35.156,23.438,27.832,61.523,0
61486.729,25.391,41.992,27.832,13.184,-17.090,0
61486.733,31.738,44.922,30.762,26.367,-27.832,0
61486.737,44.922,40.039,26.855,39.062,25.391,0
61486.740,34.668,37.109,26.367,23.926,47.852,0
61486.744,24.414,41.504,29.785,6.348,-12.207,0
61486.748,31.738,42.480,27.832,20.996,57.129,0
61486.752,41.016,37.598,26.367,41.504,122.070,0
61486.756,33.691,37.109,27.344,27.832,96.680,0
61486.760,14.160,37.598,27.832,4.883,53.711,0
61486.764,12.207,35.645,27.832,12.695,1.953,0
61486.768,25.391,33.691,27.344,34.668,30.762,0
61486.772,36.621,38.574,28.809,32.715,18.066,0
61486.776,22.461,40.039,29.297,8.301,-41.992,0
61486.780,1.465,35.645,29.297,7.812,-30.762,0
61486.783,7.324,36.133,28.320,30.273,17.090,0
61486.787,22.461,30.762,24.902,36.621,114.258,0
61486.791,13.672,26.855,31.738,16.602,101.562,0
61486.795,-0.977,27.344,36.621,11.230,23.926,0
61486.799,10.254,28.809,27.344,31.738,32.715,0
61486.803,32.227,29.785,25.879,44.922,27.832,0
61486.807,31.738,31.738,31.738,32.227,4.883,0
61486.811,14.160,34.180,38.574,16.602,15.137,0
61486.815,20.020,35.156,41.992,24.414,19.043,0
61486.819,35.645,33.691,36.133,42.969,38.574,0
61486.822,34.668,30.273,26.367,35.156,62.012,0
61486.826,26.855,33.691,28.320,13.184,52.246,0
61486.830,23.438,36.133,33.691,13.184,22.461,0
61486.834,30.273,34.668,28.809,30.273,38.574,0
61486.838,33.691,32.715,22.949,33.691,43.945,0
61486.842,14.160,33.691,29.297,14.160,-8.301,0
61486.846,8.789,37.109,36.621,9.277,19.531,0
61486.850,30.762,33.691,33.203,29.785,41.016,0
61486.854,49.805,31.738,27.832,43.457,12.695,0
61486.858,38.086,34.668,30.762,31.738,4.395,0
61486.862,24.902,36.133,31.738,20.508,-0.977,0
61486.865,32.715,35.645,28.320,27.832,50.293,0
61486.869,43.945,35.645,30.273,41.504,66.895,0
61486.873,39.551,36.133,30.273,33.203,12.207,0
61486.877,26.367,38.574,29.785,15.137,21.973,2
61486.881,28.320,39.062,30.762,27.344,28.809,0
61486.885,43.945,34.668,32.227,51.270,20.508,0
61486.889,43.457,35.156,31.738,49.316,-7.812,0
61486.893,22.949,37.598,27.344,21.484,-15.137,0
61486.897,21.973,37.109,25.879,17.578,9.766,0
61486.901,38.086,34.668,30.273,43.457,54.688,0
61486.905,51.758,33.691,30.273,46.875,105.957,0
61486.908,36.133,33.203,30.762,20.996,58.594,0
61486.912,26.855,34.668,34.180,17.578,-16.602,0
61486.916,40.039,33.691,30.762,36.133,-2.930,0
61486.920,45.410,30.762,25.879,45.898,87.402,0
61486.924,36.621,31.250,27.832,31.250,67.871,0
61486.928,20.508,33.691,30.762,11.230,-22.949,0
61486.932,24.414,33.691,30.273,28.320,26.367,0
61486.936,42.480,32.227,26.855,49.316,62.012,0
61486.940,48.828,34.668,28.320,40.039,12.695,0
61486.944,31.250,38.574,32.227,20.508,-27.832,0
61486.947,23.926,39.062,30.273,23.438,-41.504,0
61486.951,38.086,35.156,26.367,49.316,5.859,0
61486.955,40.527,28.320,23.926,41.504,27.832,0
61486.959,26.367,31.738,25.391,11.719,32.715,0
61486.963,16.602,37.598,27.832,11.719,41.992,0
61486.967,24.414,33.691,22.949,37.598,59.082,0
61486.971,39.551,31.250,25.879,46.875,118.164,0
61486.975,34.180,35.156,33.691,14.648,84.961,0
61486.979,20.996,36.133,37.598,1.465,-31.738,0
61486.983,27.832,35.645,38.086,22.949,3.418,0
61486.987,38.574,32.715,32.715,39.062,103.027,0
61486.990,22.461,30.273,31.738,24.902,39.551,0
61486.994,5.371,29.785,33.691,8.301,-44.922,0
61486.998,15.137,30.273,35.156,20.020,-15.625,0
61487.002,45.410,26.855,31.738,41.504,85.449,0
61487.006,47.363,23.926,32.715,40.527,104.004,0
61487.010,14.648,29.785,42.480,26.367,-10.742,0
61487.014,15.625,34.180,43.945,31.250,17.578,0
61487.018,38.574,28.809,33.203,53.223,57.617,0
61487.022,46.387,26.367,27.344,54.199,36.133,0
61487.026,31.738,29.785,32.715,30.273,11.230,0
61487.030,20.996,33.203,37.109,25.879,-18.555,0
61487.033,38.086,31.250,33.691,44.922,42.480,0
61487.037,51.270,28.320,31.738,50.781,102.051,0
61487.041,36.621,28.809,29.297,28.320,90.820,0
61487.045,27.344,28.809,23.926,21.484,-6.836,0
61487.049,37.109,28.320,30.273,39.551,-49.805,0
61487.053,48.828,26.855,32.227,50.293,61.035,0
61487.057,44.434,28.809,25.879,37.598,72.266,0
61487.061,30.273,31.738,26.367,20.020,18.555,0
61487.065,34.668,34.180,26.855,30.762,29.785,0
61487.069,56.152,33.203,26.367,59.570,62.988,0
61487.072,63.477,31.738,27.832,53.711,70.312,0
61487.076,39.551,32.227,30.762,27.832,4.395,0
61487.080,31.738,30.762,32.227,28.809,18.066,0
61487.084,51.758,29.785,27.832,51.270,69.824,0
61487.088,62.500,32.715,25.391,55.664,90.820,0
61487.092,44.434,33.203,33.203,32.227,59.082,0
61487.096,34.668,33.203,34.668,23.438,-6.348,0
61487.100,34.668,31.738,30.273,44.434,42.480,0
61487.104,39.062,27.832,27.832,58.105,66.895,0
61487.108,28.320,25.879,31.250,37.109,14.160,0
61487.112,14.160,30.273,40.039,23.926,-19.043,0
61487.115,29.297,35.156,39.551,40.527,-9.277,0
61487.119,49.805,32.715,35.645,61.035,43.457,0
61487.123,45.898,32.227,37.109,43.945,71.289,0
61487.127,30.273,37.109,38.574,21.973,28.320,0
61487.131,33.691,37.598,37.598,39.551,-12.695,0
61487.135,47.852,29.297,29.785,57.617,67.383,0
61487.139,46.875,28.809,26.367,46.875,105.957,0
61487.143,34.668,35.156,34.180,25.879,34.180,0
61487.147,35.156,35.156,41.016,29.297,-41.992,0
61487.151,46.875,34.668,40.039,52.246,13.184,0
61487.155,57.129,34.668,36.133,51.758,81.543,0
61487.158,45.410,36.133,35.645,25.391,39.062,0
61487.162,37.598,39.062,42.969,21.973,-21.484,0
61487.166,49.316,34.668,41.992,42.969,33.203,0
61487.170,50.781,27.832,33.203,59.570,114.746,0
61487.174,37.598,26.367,31.738,40.527,34.668,0
61487.178,33.691,32.227,36.133,14.160,-12.695,0
61487.182,37.109,36.621,36.133,26.855,39.062,0
61487.186,44.922,35.645,33.203,51.758,65.430,0
61487.190,43.945,37.109,31.738,44.434,45.898,0
61487.194,29.785,37.109,35.645,24.414,-21.973,0
61487.197,29.297,36.133,37.109,31.738,52.246,0
61487.201,40.039,35.156,30.762,55.176,118.164,0
61487.205,41.504,34.180,28.320,57.617,66.895,0
61487.209,24.902,33.691,36.133,36.621,-11.230,0
61487.213,21.973,34.668,40.039,31.250,14.160,0
61487.217,41.504,34.180,35.645,55.664,104.980,0
61487.221,54.688,31.250,30.762,67.383,94.238,0
61487.225,42.969,32.715,30.762,45.898,26.367,0
61487.229,31.250,38.574,29.785,27.344,38.574,0
61487.233,34.668,39.551,26.367,40.527,39.062,0
61487.237,51.758,37.598,24.902,57.617,-21.484,0
61487.240,50.293,38.574,27.344,37.598,-13.184,0
61487.244,25.879,41.016,28.809,17.578,-33.203,0
61487.248,28.809,42.480,32.715,33.691,-28.809,0
61487.252,47.852,40.527,29.785,55.176,60.059,0
61487.256,43.457,41.504,23.926,42.480,57.617,0
61487.260,25.879,43.457,26.367,12.207,5.371,0
61487.264,24.414,43.945,30.762,11.230,-2.930,0
61487.268,37.598,40.527,25.879,38.574,23.438,0
61487.272,42.480,37.598,21.973,42.480,59.570,0
61487.276,32.227,39.551,26.367,16.602,59.082,0
61487.280,25.879,41.992,33.203,10.254,-44.434,0
61487.283,28.809,40.039,34.180,40.527,-52.734,0
61487.287,35.156,36.133,28.809,54.199,6.348,0
61487.291,27.344,37.109,23.926,25.391,-12.695,0
61487.295,20.508,40.527,25.879,10.742,-43.945,0
61487.299,34.180,37.598,32.715,38.086,-55.664,0
61487.303,48.828,31.738,30.273,57.129,8.789,0
61487.307,39.551,31.250,30.762,36.133,23.926,0
61487.311,21.973,36.621,35.645,18.066,-19.531,0
61487.315,29.785,39.551,35.645,28.809,38.574,0
61487.319,46.875,38.086,30.273,47.852,38.574,0
61487.322,42.969,34.180,28.320,39.551,15.137,0
61487.326,17.578,34.668,32.715,21.484,4.395,0
61487.330,15.625,37.598,38.086,22.949,11.719,0
61487.334,37.109,35.645,31.250,41.016,68.359,0
61487.338,49.316,31.250,21.484,45.898,100.098,0
61487.342,34.180,33.203,23.926,20.508,35.645,0
61487.346,25.879,37.109,26.855,8.789,-7.812,0
61487.350,34.180,39.062,26.855,31.738,14.160,0
61487.354,39.062,34.180,24.414,35.645,19.043,0
61487.358,28.809,36.133,25.879,19.043,40.039,0
61487.362,20.508,40.527,28.809,8.301,29.297,0
61487.365,34.180,38.086,25.391,20.996,-9.277,0
61487.369,41.992,36.621,23.926,40.039,37.598,0
61487.373,29.297,36.133,24.902,29.297,86.426,0
61487.377,19.043,38.574,25.391,14.160,60.547,0
61487.381,26.367,39.062,27.832,24.902,20.020,0
61487.385,43.945,35.645,26.855,45.898,-5.859,0
61487.389,43.457,33.203,15.625,42.480,20.508,0
61487.393,31.250,37.109,24.414,17.090,-9.277,0
61487.397,30.273,40.527,41.504,20.996,-1.953,0
61487.401,42.480,37.598,35.156,51.270,27.344,1
61487.405,45.898,34.180,26.367,50.781,38.086,0
61487.408,25.879,34.668,27.344,26.855,33.691,0
61487.412,17.090,39.551,29.785,16.113,-50.293,0
61487.416,28.320,40.039,28.320,32.715,40.039,0
61487.420,46.387,35.645,24.902,45.410,146.973,0
61487.424,37.109,33.203,29.297,27.832,51.758,0
61487.428,14.160,36.133,37.109,11.230,42.480,0
61487.432,23.438,36.621,37.598,23.926,52.734,0
61487.436,42.480,34.668,30.762,44.434,80.078,0
61487.440,32.227,32.715,27.832,34.180,79.590,0
61487.444,14.648,35.156,25.391,14.160,24.414,0
61487.447,26.855,38.574,25.391,22.461,4.395,0
61487.451,42.969,37.109,31.250,41.016,29.297,0
61487.455,44.434,35.645,30.762,31.738,57.617,0
61487.459,29.297,36.133,34.668,11.230,3.418,0
61487.463,20.508,35.156,40.527,15.625,-20.996,0
61487.467,34.180,32.715,38.086,39.062,-5.859,0
61487.471,47.852,27.832,33.203,48.340,45.898,0
61487.475,36.133,28.809,34.180,26.855,44.434,0
61487.479,20.508,30.273,36.133,16.113,-33.203,0
61487.483,24.414,27.832,37.598,37.598,-29.785,0
61487.487,34.668,25.879,32.227,51.270,32.227,0
61487.490,28.320,25.391,29.297,32.715,38.086,0
61487.494,16.602,28.809,39.062,16.602,-14.648,0
61487.498,23.926,32.227,41.992,29.297,-53.223,0
61487.502,36.133,28.809,36.133,46.875,20.996,0
61487.506,38.574,29.297,34.668,35.645,85.449,0
61487.510,24.902,32.227,35.645,19.043,62.500,0
61487.514,17.578,30.273,35.156,24.902,25.879,0
61487.518,33.203,31.250,31.738,40.039,44.922,0
61487.522,36.621,26.855,24.902,42.480,7.812,0
61487.526,15.137,24.414,25.879,21.973,-56.641,0
61487.530,2.930,25.879,36.133,7.812,-6.836,0
61487.533,17.090,28.320,41.016,25.879,82.520,0
61487.537,37.109,27.344,41.016,38.086,66.895,0
61487.541,28.809,27.832,37.109,18.066,22.949,0
61487.545,17.090,34.668,35.156,7.324,12.207,0
61487.549,24.414,32.715,34.668,26.367,18.066,0
61487.553,36.621,29.297,28.320,46.387,27.832,0
61487.557,26.855,31.738,24.414,29.297,-6.836,0
61487.561,13.184,29.297,30.273,6.836,-49.805,0
61487.565,23.438,26.367,31.738,21.484,-16.602,0
61487.569,33.691,25.391,25.879,41.504,48.828,0
61487.572,33.203,26.855,29.785,38.574,62.012,0
61487.576,16.602,29.785,31.738,22.949,20.996,0
61487.580,7.324,31.250,29.785,23.926,26.367,0
61487.584,23.926,28.320,31.250,41.016,41.504,0
61487.588,35.156,27.832,30.762,42.969,59.082,0
61487.592,21.973,31.738,35.156,21.484,49.805,0
61487.596,11.230,27.832,36.133,10.742,9.766,0
61487.600,28.320,29.297,29.297,28.320,32.227,0
61487.604,46.387,31.250,27.344,44.922,109.375,0
61487.608,34.668,30.762,28.320,31.250,37.109,0
61487.612,18.555,33.691,29.297,17.578,-10.742,0
61487.615,21.973,29.297,20.020,27.344,0.000,0
61487.619,43.457,27.832,16.602,45.898,47.852,0
61487.623,41.504,28.320,24.414,37.109,62.988,0
61487.627,15.137,25.391,29.297,22.461,2.441,0
61487.631,16.602,24.414,33.203,34.180,22.461,0
61487.635,37.109,27.344,33.203,45.898,49.805,0
61487.639,40.039,28.320,31.738,41.016,54.688,0
61487.643,19.531,27.832,31.250,20.020,12.207,0
61487.647,15.625,28.320,33.203,14.648,4.395,0
61487.651,35.645,30.273,34.180,41.504,40.039,0
61487.655,47.852,32.227,29.785,53.223,69.824,0
61487.658,30.273,32.715,29.785,32.227,31.738,0
61487.662,23.438,36.133,40.039,20.996,-45.898,0
61487.666,41.016,35.156,39.551,38.574,11.719,0
61487.670,48.340,32.715,32.227,54.199,59.570,0
61487.674,34.180,33.203,34.668,34.668,18.066,0
61487.678,20.020,33.691,36.133,11.719,-28.809,0
61487.682,25.391,32.227,32.227,22.949,-42.969,0
61487.686,43.457,29.785,28.809,44.434,49.805,0
61487.690,39.062,32.715,30.762,37.109,51.758,0
61487.694,18.066,34.668,37.109,20.020,7.324,0
61487.697,20.020,31.250,33.691,22.949,7.324,0
61487.701,34.180,30.273,30.762,45.410,19.531,0
61487.705,40.039,28.320,32.227,47.852,11.719,0
61487.709,26.367,32.227,37.598,28.320,37.109,0
61487.713,21.484,37.598,41.992,20.508,46.387,0
61487.717,35.156,30.762,37.109,38.086,56.641,0
61487.721,45.898,26.855,34.180,53.711,108.887,0
61487.725,36.133,31.738,37.598,40.527,63.965,0
61487.729,23.438,38.086,42.969,29.297,49.316,0
61487.733,31.738,35.645,39.062,42.480,65.918,0
61487.737,43.457,32.715,30.273,56.641,71.777,0
61487.740,33.203,33.203,33.691,42.969,11.719,0
61487.744,16.602,33.691,32.715,20.996,-20.508,0
61487.748,20.996,35.645,32.227,32.715,26.855,0
61487.752,41.016,35.156,33.203,50.293,20.508,0
61487.756,38.574,36.133,30.762,31.738,20.508,0
61487.760,17.578,37.109,35.645,11.719,29.785,0
61487.764,17.578,37.109,31.738,17.578,41.504,0
61487.768,25.391,35.156,26.367,44.922,82.520,0
61487.772,34.180,36.133,29.297,50.781,31.250,0
61487.776,23.438,35.645,28.809,19.531,-32.715,0
61487.780,4.883,34.668,34.180,18.555,-51.270,0
61487.783,7.324,31.738,29.785,41.992,22.461,0
61487.787,20.508,32.227,19.043,51.270,111.816,0
61487.791,16.113,36.133,26.367,32.715,42.969,0
61487.795,6.836,34.180,35.645,19.043,7.812,0
61487.799,13.184,32.227,35.645,34.668,32.227,0
61487.803,28.809,31.738,29.785,46.387,41.992,0
61487.807,23.926,33.691,28.320,32.227,24.414,0
61487.811,6.836,36.133,34.668,15.137,-7.812,0
61487.815,19.531,36.621,36.621,28.809,-2.441,0
61487.819,33.691,32.715,26.855,47.363,62.500,0
61487.822,34.180,31.250,22.461,42.480,83.984,0
61487.826,20.020,34.180,30.273,23.926,24.902,0
61487.830,19.043,40.527,38.086,20.996,-29.785,0
61487.834,33.203,39.062,35.156,41.504,32.715,0
61487.838,35.156,29.785,28.320,47.852,24.902,0
61487.842,19.043,30.762,30.762,23.438,-42.480,0
61487.846,2.930,37.598,34.668,12.207,-20.020,0
61487.850,17.090,37.598,30.273,37.109,13.672,0
61487.854,41.992,36.133,27.832,49.805,54.199,0
61487.858,25.391,33.203,31.250,24.414,65.430,0
61487.862,5.859,34.180,35.645,10.742,17.578,0
61487.865,22.949,38.086,33.691,24.902,33.203,0
61487.869,35.156,32.715,29.297,41.992,28.320,0
61487.873,17.578,29.785,25.391,31.738,22.461,0
61487.877,4.395,31.250,26.367,4.883,49.805,0
61487.881,16.113,31.738,32.715,5.859,65.430,0
61487.885,24.414,29.785,32.227,32.227,93.750,0
61487.889,18.555,27.832,31.250,30.273,73.730,0
61487.893,15.137,29.297,36.621,8.789,58.105,0
61487.897,9.277,30.762,36.133,5.859,0.488,0
61487.901,13.672,34.668,32.715,28.320,1.953,0
61487.905,37.598,31.738,35.156,41.992,44.434,1
61487.908,23.438,28.320,38.574,17.578,44.922,0
61487.912,4.395,31.738,39.551,6.348,24.414,0
61487.916,17.090,31.250,33.691,23.438,-22.949,0
61487.920,37.598,31.250,31.250,41.992,42.969,0
61487.924,30.273,35.156,35.645,37.598,100.586,0
61487.928,17.090,36.621,38.086,21.973,10.254,0
61487.932,28.320,36.621,34.668,30.762,-39.062,0
61487.936,43.457,35.156,29.297,52.734,42.969,0
61487.940,42.480,33.691,30.273,46.387,60.059,0
61487.944,31.738,37.598,31.250,24.902,-78.125,0
61487.947,35.156,35.156,32.715,24.414,-36.621,0
61487.951,39.062,32.227,35.645,38.086,96.191,0
61487.955,40.527,33.203,32.715,32.715,44.434,0
61487.959,37.109,35.645,32.227,16.113,-25.879,0
61487.963,32.227,36.621,36.133,16.113,-32.715,0
61487.967,42.480,35.645,33.691,36.621,0.977,0
61487.971,47.363,33.691,26.855,51.270,49.316,0
61487.975,24.414,33.691,24.902,32.227,5.859,0
61487.979,16.113,37.109,28.809,17.090,-15.137,0
61487.983,31.738,37.109,31.738,35.645,15.137,0
61487.987,45.898,34.668,30.762,54.199,70.312,0
61487.990,39.062,34.180,28.809,35.645,20.996,0
61487.994,18.555,33.203,31.738,13.672,10.254,0
61487.998,21.973,31.738,32.227,25.879,51.758,0
61488.002,39.551,30.762,30.762,43.457,18.066,0
61488.006,37.598,28.809,30.273,32.715,8.301,0
61488.010,18.555,32.227,35.156,15.625,12.207,0
61488.014,20.508,33.691,37.598,22.949,-27.344,0
61488.018,42.480,31.250,26.367,44.434,59.082,0
61488.022,46.387,30.762,20.996,46.875,153.809,0
61488.026,28.320,32.227,31.250,31.250,42.480,0
61488.030,20.508,37.109,41.016,34.668,-1.465,0
61488.033,34.180,37.598,40.527,44.922,52.734,0
61488.037,48.828,31.250,36.621,46.387,49.805,0
61488.041,34.668,32.227,36.133,35.156,39.551,0
61488.045,20.996,39.062,38.086,24.902,39.551,0
61488.049,26.367,38.086,35.156,34.180,63.477,0
61488.053,41.504,35.156,33.203,47.363,101.562,0
61488.057,34.180,36.133,32.715,32.715,71.289,0
61488.061,19.043,38.574,35.156,16.113,21.484,0
61488.065,21.484,38.574,36.133,29.297,-17.578,0
61488.069,29.297,36.133,35.156,48.340,12.207,0
61488.072,27.344,32.715,36.621,43.945,26.855,0
61488.076,15.137,31.250,37.109,22.461,6.836,0
61488.080,13.184,32.227,38.574,16.602,-22.461,0
61488.084,28.320,34.180,40.039,42.969,7.324,0
61488.088,37.109,29.297,31.738,48.828,54.688,0
61488.092,25.391,31.250,33.203,20.996,19.531,0
61488.096,23.438,33.691,36.621,9.277,29.297,0
61488.100,33.203,29.785,26.367,29.785,81.543,0
61488.104,41.016,29.297,29.785,46.387,55.176,0
61488.108,32.227,31.250,33.203,26.367,-1.953,0
61488.112,20.996,36.621,35.156,15.137,14.160,0
61488.115,30.273,36.621,35.156,23.926,30.273,0
61488.119,40.039,33.203,30.762,32.715,28.320,0
61488.123,39.062,35.645,33.691,32.227,-1.465,0
61488.127,28.320,39.062,39.551,19.043,-25.879,0
61488.131,31.250,41.016,39.551,27.344,22.949,0
61488.135,52.246,41.992,34.668,46.387,67.871,0
61488.139,56.641,37.598,28.809,41.016,87.402,0
61488.143,41.504,38.574,33.691,25.391,97.168,0
61488.147,35.156,39.062,35.156,26.367,65.918,0
61488.151,41.504,33.691,32.227,44.434,46.387,0
61488.155,55.176,31.250,31.250,49.316,103.516,0
61488.158,45.410,35.645,30.762,27.832,86.426,0
61488.162,37.109,39.551,32.715,19.531,-1.465,0
61488.166,49.316,38.574,32.227,34.668,1.953,0
61488.170,48.828,34.180,32.715,52.246,55.176,0
61488.174,30.762,32.715,32.715,42.480,-5.859,0
61488.178,18.066,34.180,34.668,21.484,-101.562,0
61488.182,30.273,35.645,38.574,26.855,-10.254,0
61488.186,42.480,33.203,31.738,43.457,55.664,0
61488.190,36.133,30.762,29.297,29.297,41.504,0
61488.194,25.391,34.668,35.156,7.324,41.992,0
61488.197,27.832,38.574,32.227,9.766,42.969,0
61488.201,49.316,36.621,27.832,31.250,27.832,0
61488.205,62.500,36.133,31.250,38.086,16.113,0
61488.209,47.363,38.086,36.133,19.043,-5.371,0
61488.213,31.738,38.574,38.086,17.090,2.930,0
61488.217,41.504,36.133,32.715,38.574,11.719,0
61488.221,53.223,31.250,33.203,44.434,56.641,0
61488.225,43.457,34.180,34.180,22.949,38.574,0
61488.229,35.156,39.551,32.227,17.578,17.578,0
61488.233,41.992,40.039,33.691,35.156,81.055,0
61488.237,56.641,38.086,33.691,42.480,103.027,0
61488.240,48.340,36.621,30.762,32.715,83.008,0
61488.244,25.879,39.062,34.180,16.113,47.363,0
61488.248,28.320,41.016,38.574,21.973,39.062,0
61488.252,47.363,38.574,31.738,48.340,56.152,0
61488.256,51.270,33.691,26.367,41.504,14.648,0
61488.260,33.203,35.156,28.320,15.137,-38.574,0
61488.264,25.391,36.621,27.344,17.090,-16.602,0
61488.268,40.039,33.203,23.438,38.574,37.598,0
61488.272,48.340,34.180,31.250,41.016,65.918,0
61488.276,34.180,38.086,40.527,21.484,29.297,0
61488.280,29.297,34.668,39.062,18.555,-51.270,0
61488.283,42.480,30.762,35.645,38.574,4.395,0
61488.287,51.758,27.832,34.180,50.781,136.230,0
61488.291,39.551,28.809,32.227,35.156,70.801,0
61488.295,33.203,32.227,32.715,19.531,-18.555,0
61488.299,42.480,32.227,33.203,29.785,9.766,0
61488.303,52.734,30.762,35.645,49.805,29.297,0
61488.307,47.852,30.273,38.086,41.504,-7.324,0
61488.311,37.598,37.109,38.574,20.020,1.953,0
61488.315,48.340,38.574,36.621,22.949,20.996,0
61488.319,58.105,31.738,28.320,41.016,11.719,0
61488.322,44.922,29.785,23.926,37.598,62.012,0
61488.326,24.414,31.250,25.879,15.137,47.852,0
61488.330,26.855,38.086,32.227,18.555,16.602,0
61488.334,44.434,39.551,32.715,41.992,57.617,0
61488.338,46.875,36.621,27.832,48.828,42.480,0
61488.342,34.668,38.574,29.297,27.344,8.789,0
61488.346,24.902,41.504,33.691,17.090,-37.109,0
61488.350,32.227,38.086,33.691,40.527,-3.418,0
61488.354,46.875,30.762,25.879,52.734,63.477,0
61488.358,38.574,32.227,28.320,28.809,61.523,0
61488.362,25.879,34.180,30.273,12.207,37.598,0
61488.365,29.297,34.668,28.809,20.508,40.527,0
61488.369,42.969,36.621,33.203,41.992,72.754,0
61488.373,40.527,35.645,28.809,38.086,122.070,0
61488.377,22.461,37.109,26.367,14.648,23.438,0
61488.381,26.367,37.109,31.738,23.438,-36.621,0
61488.385,38.086,33.203,33.203,45.410,36.133,0
61488.389,36.621,34.180,33.203,39.062,18.066,0
61488.393,23.926,39.062,37.109,18.066,-11.230,0
61488.397,19.043,35.645,37.598,14.648,48.828,0
61488.401,32.715,30.762,35.156,40.527,94.238,0
61488.405,40.527,31.738,30.273,43.945,36.621,0
61488.408,22.461,34.668,29.785,20.020,15.137,0
61488.412,11.230,37.109,31.250,12.207,1.953,0
61488.416,29.785,36.621,31.250,26.855,-6.836,0
61488.420,45.898,34.180,31.738,49.316,62.500,0
61488.424,30.273,33.691,26.855,32.227,73.730,0
61488.428,13.184,35.156,24.902,4.395,-10.254,0
61488.432,25.879,39.062,30.273,18.066,17.090,0
61488.436,44.922,38.574,33.203,45.898,46.387,0
61488.440,39.551,36.133,30.273,34.668,20.020,0
61488.444,19.531,38.086,33.691,8.301,3.906,0
61488.447,21.484,40.527,30.762,13.184,-28.320,0
61488.451,42.969,41.016,29.297,41.504,-5.371,0
61488.455,52.246,39.551,33.203,41.016,46.387,0
61488.459,42.480,41.504,36.621,14.648,44.434,0
61488.463,30.273,40.527,42.480,10.742,8.301,0
61488.467,34.668,39.062,38.574,36.133,41.504,0
61488.471,44.922,37.109,37.598,50.293,93.750,0
61488.475,30.762,36.133,40.527,28.320,61.035,0
61488.479,20.508,37.598,36.133,18.066,-4.883,0
61488.483,36.621,35.645,36.133,38.574,-59.082,0
61488.487,53.223,33.203,33.203,55.176,61.035,0
61488.490,43.945,34.668,35.645,43.945,124.023,0
61488.494,27.832,37.598,41.992,27.832,20.996,0
61488.498,28.809,37.598,42.969,41.992,8.789,0
61488.502,40.039,33.691,37.109,56.641,87.891,0
61488.506,37.598,31.250,29.785,43.457,98.145,0
61488.510,24.414,32.227,37.109,28.320,-20.996,0
61488.514,21.484,31.738,42.480,23.926,-24.902,0
61488.518,36.621,32.227,33.203,41.992,40.527,0
61488.522,45.898,32.715,29.297,48.340,79.102,0
61488.526,30.762,32.715,36.621,26.855,85.449,0
61488.530,19.043,33.203,37.598,15.625,39.551,0
61488.533,30.273,32.227,32.227,33.203,45.898,0
61488.537,41.504,27.344,24.902,44.922,11.719,0
61488.541,30.273,30.273,28.809,27.344,22.949,0
61488.545,18.555,39.062,38.086,18.066,12.695,0
61488.549,22.949,36.133,33.691,24.902,-28.320,0
61488.553,46.387,30.762,29.785,44.434,32.715,0
61488.557,42.480,33.691,32.227,37.598,39.551,0
61488.561,26.367,34.668,35.645,14.648,-26.367,0
61488.565,35.156,30.762,37.109,28.809,0.977,0
61488.569,46.875,29.785,35.156,53.711,66.406,0
61488.572,45.898,29.785,35.156,44.434,73.730,0
61488.576,26.855,30.762,41.016,22.461,51.758,0
61488.580,15.137,32.715,41.016,25.391,63.477,0
61488.584,28.809,31.738,34.180,40.039,74.707,0
61488.588,38.574,27.832,31.738,36.621,80.566,0
61488.592,18.555,25.879,35.645,14.160,30.762,0
61488.596,3.418,25.879,31.250,6.836,-49.805,0
61488.600,14.648,26.367,21.973,24.414,-5.371,0
61488.604,37.109,27.832,28.320,40.039,44.922,1
61488.608,30.273,27.344,34.180,25.391,75.684,0
61488.612,19.043,32.715,40.039,17.578,6.348,0
61488.615,32.227,34.668,40.527,31.250,-37.109,0
61488.619,43.457,30.273,35.156,49.316,46.875,0
61488.623,43.457,31.738,35.156,44.434,5.859,0
61488.627,28.320,36.621,36.621,20.508,-43.457,0
61488.631,26.367,36.133,37.598,29.297,26.855,0
61488.635,36.621,32.227,33.203,49.316,101.074,0
61488.639,41.504,34.668,26.855,48.340,81.543,0
61488.643,30.273,37.598,30.762,24.902,-37.109,0
61488.647,21.484,36.621,29.785,19.043,-52.246,0
61488.651,39.551,37.598,27.344,42.969,-1.953,0
61488.655,56.152,34.668,29.785,43.945,26.855,0
61488.658,37.598,34.180,25.879,15.625,42.480,0
61488.662,25.879,38.086,24.902,7.812,14.648,0
61488.666,41.504,40.039,26.855,34.180,-0.488,0
61488.670,52.246,40.527,23.926,53.223,61.035,0
61488.674,44.434,39.551,27.344,37.598,63.477,0
61488.678,33.203,39.062,26.855,20.508,-38.574,0
61488.682,31.250,36.621,27.344,31.250,19.531,0
61488.686,44.922,35.156,30.273,55.176,125.488,0
61488.690,46.387,37.109,27.832,49.805,41.016,0
61488.694,31.250,38.574,30.273,21.973,17.090,0
61488.697,30.273,37.109,26.367,32.227,41.016,0
61488.701,40.527,34.180,19.531,54.199,84.473,0
61488.705,49.316,30.273,24.414,45.898,84.961,0
61488.709,30.273,28.809,28.320,27.344,35.156,0
61488.713,16.602,32.715,31.738,20.508,7.812,0
61488.717,37.598,34.180,29.785,40.527,20.996,0
61488.721,46.387,31.738,23.438,54.199,74.219,0
61488.725,24.414,32.227,20.996,30.762,70.312,0
61488.729,15.625,39.551,28.809,18.555,-3.418,0
61488.733,29.785,41.016,35.645,33.203,-21.973,0
61488.737,49.805,33.691,30.762,44.434,54.688,0
61488.740,41.992,34.180,26.855,31.250,73.730,0
61488.744,17.090,40.039,29.785,17.090,34.180,0
61488.748,17.090,36.621,30.273,23.926,12.695,0
61488.752,35.156,34.668,27.344,37.109,7.324,0
61488.756,40.527,35.645,27.344,29.297,-37.598,0
61488.760,24.902,34.180,26.367,10.254,-63.965,0
61488.764,25.391,33.691,27.832,18.066,31.738,0
61488.768,41.016,32.227,30.273,44.922,95.703,0
61488.772,41.016,29.785,28.320,43.945,22.461,0
61488.776,20.996,33.203,29.297,18.066,-0.488,0
61488.780,12.695,36.133,34.180,20.508,-1.465,0
61488.783,26.367,32.715,36.133,43.945,-28.809,0
61488.787,41.992,28.809,31.250,51.270,43.945,0
61488.791,30.273,33.203,38.086,39.551,23.438,0
61488.795,11.230,38.574,41.992,19.531,-43.457,0
61488.799,21.973,36.621,35.645,31.250,2.441,0
61488.803,42.969,32.227,28.809,54.688,57.129,0
61488.807,37.598,33.203,30.762,41.992,84.961,0
61488.811,22.949,36.133,37.598,18.555,59.570,0
61488.815,26.367,31.738,34.180,20.508,47.363,0
61488.819,40.527,27.832,32.227,44.434,66.895,0
61488.822,41.992,28.809,32.227,44.922,41.504,0
61488.826,24.414,32.227,29.785,24.902,0.977,0
61488.830,14.648,33.203,25.879,20.996,1.953,0
61488.834,33.691,31.738,27.344,36.133,20.996,0
61488.838,50.781,30.273,27.832,46.875,23.438,0
61488.842,41.992,35.156,33.203,27.832,18.066,0
61488.846,36.621,36.621,34.668,21.484,21.973,0
61488.850,49.805,37.109,32.227,47.852,31.738,0
61488.854,57.129,37.598,27.344,61.523,16.113,0
61488.858,40.039,37.598,32.227,38.574,16.602,0
61488.862,21.484,38.086,37.598,18.066,33.203,0
61488.865,27.832,35.156,35.645,32.227,29.785,0
61488.869,48.828,29.785,31.738,56.152,79.102,0
61488.873,45.410,26.855,27.344,41.992,58.594,0
61488.877,31.250,30.762,34.180,20.020,-28.809,0
61488.881,34.668,33.691,35.645,27.832,14.160,0
61488.885,44.922,31.738,30.273,41.504,57.129,0
61488.889,45.410,27.832,27.832,42.480,52.734,0
61488.893,25.391,32.715,28.809,23.438,66.406,0
61488.897,19.043,35.156,30.273,20.020,59.082,0
61488.901,34.180,32.715,30.273,40.527,21.973,0
61488.905,45.410,31.250,25.879,47.363,26.855,0
61488.908,29.297,30.762,31.738,29.785,2.441,0
61488.912,17.578,32.715,41.016,20.996,-58.105,0
61488.916,36.621,35.645,38.574,41.016,-25.391,0
61488.920,53.711,37.109,36.133,54.199,25.391,0
61488.924,41.992,32.715,32.715,36.133,7.812,0
61488.928,31.250,32.715,32.715,27.832,-8.789,0
61488.932,39.062,34.180,39.551,35.645,-1.465,0
61488.936,46.387,30.273,28.320,45.410,50.781,0
61488.940,36.621,29.785,20.508,40.039,65.430,0
61488.944,21.484,32.715,27.344,16.602,-15.137,0
61488.947,27.832,31.738,31.250,27.832,-12.695,0
61488.951,37.109,29.297,26.855,50.781,53.711,0
61488.955,41.992,27.832,22.461,36.621,84.961,0
61488.959,32.227,31.250,26.367,19.043,19.043,0
61488.963,24.414,36.621,29.785,19.531,-40.039,0
61488.967,37.598,35.645,31.738,40.527,-9.766,0
61488.971,43.457,30.762,24.414,52.246,55.176,0
61488.975,32.227,28.809,19.043,31.250,35.156,0
61488.979,19.531,29.785,30.762,17.090,-3.418,0
61488.983,29.785,33.691,40.527,38.574,50.781,0
61488.987,49.805,31.250,39.551,59.570,105.469,0
61488.990,39.551,30.762,33.691,48.828,91.309,0
61488.994,18.555,33.203,34.180,24.902,-6.348,0
61488.998,20.508,32.227,35.156,30.762,31.738,0
61489.002,38.086,30.762,30.762,54.199,98.633,0
61489.006,44.922,31.250,30.762,50.293,66.406,0
61489.010,26.367,35.156,35.156,35.156,53.711,0
61489.014,25.391,35.156,41.992,36.621,-12.207,0
61489.018,47.363,26.855,39.062,52.734,40.527,0
61489.022,51.758,24.414,29.297,49.316,81.543,0
61489.026,33.691,29.297,29.297,26.367,62.500,0
61489.030,24.902,34.668,34.668,21.973,10.254,0
61489.033,32.715,35.645,32.715,39.551,-18.555,0
61489.037,43.945,31.738,26.367,44.922,71.289,0
61489.041,30.762,32.227,31.250,27.344,32.227,0
61489.045,22.949,36.621,34.668,17.090,20.508,0
61489.049,35.156,37.598,26.367,36.621,17.578,0
61489.053,51.758,32.715,18.555,51.270,41.992,0
61489.057,50.781,34.180,24.902,34.668,76.172,0
61489.061,25.391,40.039,33.203,16.602,4.883,0
61489.065,23.926,38.574,34.668,25.391,-20.996,0
61489.069,40.039,37.109,30.762,45.898,70.312,0
61489.072,40.039,34.180,25.879,42.969,76.660,0
61489.076,28.320,32.715,24.902,17.090,77.637,0
61489.080,22.461,34.668,29.785,15.625,18.066,0
61489.084,32.227,31.738,28.320,37.109,18.555,0
61489.088,41.016,27.832,20.996,41.992,61.523,0
61489.092,26.855,28.809,23.438,20.020,54.199,0
61489.096,18.066,32.715,26.855,11.719,-5.371,0
61489.100,30.762,31.250,26.367,32.715,-47.363,0
61489.104,43.457,25.879,24.902,44.922,-14.160,0
61489.108,30.762,24.902,23.438,26.367,1.953,0
61489.112,13.672,31.250,26.855,9.766,24.414,0
61489.115,17.090,30.273,27.344,22.461,13.184,0
61489.119,34.668,24.902,21.973,43.945,66.406,0
61489.123,36.133,24.902,20.996,39.062,73.242,0
61489.127,18.555,24.414,21.973,16.602,-25.879,0
61489.131,17.578,25.391,26.855,17.090,-34.668,0
61489.135,32.227,27.344,28.809,39.551,41.992,0
61489.139,41.504,27.832,25.879,43.457,64.941,0
61489.143,34.668,32.227,31.250,25.391,-7.324,0
61489.147,26.855,34.668,30.762,15.625,-66.406,0
61489.151,34.668,32.715,22.949,24.902,-26.855,0
61489.155,41.992,32.227,21.973,32.227,5.371,0
61489.158,30.762,35.156,24.902,16.602,25.391,0
61489.162,15.137,31.738,30.762,7.812,-38.086,0
61489.166,21.484,30.762,36.133,23.438,-72.266,0
61489.170,34.180,31.738,31.738,40.039,46.387,0
61489.174,26.855,27.832,29.785,26.367,118.652,0
61489.178,14.160,27.832,31.738,8.789,46.875,0
61489.182,15.625,32.227,34.180,28.320,13.672,0
61489.186,32.227,33.203,32.227,41.992,118.164,0
61489.190,33.691,33.691,29.785,24.902,114.258,0
61489.194,18.555,33.691,32.227,7.812,37.598,0
61489.197,17.090,34.180,33.203,11.230,29.785,0
61489.201,28.809,31.250,24.414,29.785,75.195,0
61489.205,37.109,26.367,23.438,30.762,88.379,0
61489.209,18.555,28.320,36.621,9.277,24.902,0
61489.213,4.883,30.273,39.062,4.395,56.641,0
61489.217,18.066,26.855,31.738,29.785,67.383,0
61489.221,34.668,24.902,32.227,45.898,69.336,0
61489.225,23.438,28.809,37.598,23.438,47.363,0
61489.229,5.859,32.715,35.645,7.812,-39.551,0
61489.233,15.137,30.762,32.715,25.391,-12.695,0
61489.237,27.832,25.391,27.832,39.551,41.992,0
61489.240,26.367,26.367,31.738,30.273,34.668,0
61489.244,15.625,29.297,39.551,17.090,45.410,0
61489.248,24.414,29.785,34.668,22.949,40.039,0
61489.252,46.387,28.809,31.250,41.016,47.363,0
61489.256,50.293,28.809,30.762,36.133,89.844,0
61489.260,32.227,29.785,31.738,11.230,6.836,1
61489.264,24.414,30.762,36.621,10.742,-87.402,0
61489.268,32.715,32.715,32.227,38.574,-16.113,0
61489.272,31.738,30.273,24.902,43.457,48.340,0
61489.276,18.066,32.227,28.320,24.414,-12.695,0
61489.280,12.207,38.574,35.645,21.973,-60.059,0
61489.283,24.902,38.574,32.715,34.668,24.902,0
61489.287,35.645,31.738,25.879,40.039,105.469,0
61489.291,31.738,31.250,23.438,26.855,79.102,0
61489.295,22.949,32.715,30.273,13.672,36.621,0
61489.299,24.902,32.227,36.621,23.438,1.953,0
61489.303,42.969,34.180,36.621,40.039,-23.438,0
61489.307,40.039,31.738,35.156,27.344,52.734,0
61489.311,15.625,31.738,36.621,3.418,60.547,0
61489.315,8.789,30.762,31.738,3.418,20.020,0
61489.319,28.320,27.344,19.531,26.367,56.152,0
61489.322,36.133,25.879,20.996,31.250,50.293,0
61489.326,17.578,24.414,27.832,14.648,37.109,0
61489.330,13.184,27.832,31.738,23.438,48.828,0
61489.334,32.715,28.320,33.203,44.922,79.102,0
61489.338,45.410,25.391,33.691,48.340,84.473,0
61489.342,31.738,25.879,36.133,29.785,56.152,0
61489.346,21.484,28.320,36.621,20.508,38.574,0
61489.350,28.809,30.273,37.109,41.504,39.062,0
61489.354,41.992,25.879,31.738,49.805,93.262,0
61489.358,38.574,25.879,31.250,32.227,70.312,0
61489.362,18.066,30.273,34.668,20.996,-18.066,0
61489.365,24.414,29.785,32.715,32.227,17.090,0
61489.369,50.781,31.250,30.762,49.805,33.203,0
61489.373,45.898,30.762,25.879,35.156,4.395,0
61489.377,23.438,33.691,19.531,13.184,-21.973,0
61489.381,30.273,39.551,26.367,19.043,-67.871,0
61489.385,42.480,37.109,32.227,42.969,-40.527,0
61489.389,43.945,34.180,26.367,35.645,39.551,0
61489.393,37.109,38.086,27.832,4.395,11.719,0
61489.397,25.391,37.598,30.762,3.906,-19.531,0
61489.401,31.250,34.668,28.320,27.344,12.207,0
61489.405,38.574,35.645,24.902,33.203,28.809,0
61489.408,27.832,37.109,27.344,15.137,23.926,0
61489.412,19.043,38.086,35.156,7.324,26.367,0
61489.416,29.297,37.598,34.668,28.320,2.441,0
61489.420,47.363,36.621,25.391,41.504,17.578,0
61489.424,44.922,34.180,24.902,23.438,22.949,0
61489.428,29.297,34.668,26.367,12.695,17.578,0
61489.432,32.715,38.086,26.367,28.320,11.230,0
61489.436,47.852,34.180,25.879,49.805,52.246,0
61489.440,40.527,29.297,24.414,41.504,52.246,0
61489.444,14.160,31.250,29.297,19.043,-3.418,0
61489.447,13.184,30.762,28.809,20.996,-0.488,0
61489.451,22.461,27.832,26.367,40.527,43.457,0
61489.455,23.438,23.438,24.414,38.574,24.414,0
61489.459,12.695,23.926,28.320,20.996,18.555,0
61489.463,10.254,33.691,34.180,16.602,35.156,0
61489.467,30.762,35.645,29.297,34.180,40.039,0
61489.471,52.246,28.320,23.438,43.945,62.988,0
61489.475,38.574,25.879,16.602,23.438,29.785,0
61489.479,17.578,25.879,20.020,18.066,-3.906,0
61489.483,31.250,24.902,34.180,39.062,-23.438,0
61489.487,49.316,23.926,33.203,52.246,-7.812,0
61489.490,38.086,23.926,29.785,38.574,-14.160,0
61489.494,20.508,26.855,32.715,12.695,-51.270,0
61489.498,30.273,26.367,34.180,20.508,-46.875,0
61489.502,45.410,21.973,29.785,46.387,7.324,0
61489.506,45.410,23.438,21.484,37.109,87.891,0
61489.510,33.691,31.738,28.320,21.484,48.340,0
61489.514,30.273,31.738,27.832,21.484,-29.297,0
61489.518,42.969,28.809,23.438,37.598,8.789,0
61489.522,49.316,30.273,23.438,44.922,86.914,0
61489.526,26.367,32.227,24.902,24.902,56.641,0
61489.530,12.207,33.691,32.227,18.066,11.230,0
61489.533,24.902,36.621,33.203,34.180,61.523,0
61489.537,39.551,36.133,29.785,48.340,90.820,0
61489.541,33.691,36.621,30.273,37.598,47.363,0
61489.545,20.508,37.598,32.227,20.996,14.160,0
61489.549,21.484,31.738,30.762,28.320,41.016,0
61489.553,36.133,29.785,28.320,42.480,59.570,0
61489.557,30.273,27.832,22.949,38.574,60.059,0
61489.561,10.254,28.320,25.391,22.461,-2.441,0
61489.565,16.113,31.250,29.785,21.973,-16.602,0
61489.569,34.668,27.344,26.855,41.016,45.898,0
61489.572,37.109,23.926,25.391,40.039,34.668,0
61489.576,27.832,29.297,31.250,23.926,21.973,0
61489.580,28.809,30.273,31.738,24.414,55.664,0
61489.584,41.016,25.879,28.320,46.875,72.266,0
61489.588,49.805,22.461,25.879,57.129,78.613,0
61489.592,32.227,28.320,24.414,31.250,49.316,0
61489.596,21.973,31.738,25.879,19.043,6.836,0
61489.600,36.133,25.391,27.344,43.457,40.039,0
61489.604,51.270,25.391,26.855,52.734,63.965,0
61489.608,41.016,28.320,27.832,34.180,23.926,0
61489.612,18.555,31.250,30.273,18.555,-28.809,0
61489.615,29.785,34.180,30.762,27.344,-28.320,0
61489.619,42.480,29.785,25.391,45.898,51.758,0
61489.623,34.668,29.785,20.996,34.180,33.691,0
61489.627,20.996,35.645,22.461,11.719,15.625,0
61489.631,20.020,40.039,22.949,22.949,0.488,0
61489.635,35.156,35.645,20.996,38.574,39.062,0
61489.639,45.410,28.320,16.602,31.250,80.078,0
61489.643,31.738,35.645,24.414,20.508,47.363,0
61489.647,22.949,38.574,32.715,16.602,52.734,0
61489.651,29.297,33.691,29.297,26.367,13.184,0
61489.655,35.156,32.715,19.043,39.551,23.438,0
61489.658,27.344,32.227,19.043,23.438,14.160,0
61489.662,20.508,31.250,31.738,11.230,-64.453,0
61489.666,33.691,27.832,35.645,36.621,-29.785,0
61489.670,41.016,22.949,32.227,55.664,72.266,0
61489.674,31.738,21.973,29.785,34.180,50.781,0
61489.678,22.461,23.926,33.691,17.578,21.484,0
61489.682,20.996,23.438,33.203,36.621,8.789,0
61489.686,29.297,21.973,24.902,48.340,29.297,0
61489.690,24.902,22.461,22.461,34.180,41.504,0
61489.694,9.766,27.832,24.414,16.113,1.953,0
61489.697,16.602,33.691,27.344,21.484,-22.949,0
61489.701,41.504,34.180,31.738,48.828,15.137,0
61489.705,45.410,34.668,31.250,53.223,50.781,0
61489.709,22.461,35.156,34.668,26.367,-20.996,0
61489.713,11.719,36.621,37.109,20.508,-27.832,0
61489.717,26.367,37.598,33.691,44.922,35.156,0
61489.721,39.551,34.668,32.227,52.734,61.523,0
61489.725,28.320,33.691,30.762,36.133,80.566,0
61489.729,9.277,38.086,33.203,22.949,20.508,0
61489.733,15.625,43.457,34.668,35.156,-32.715,0
61489.737,33.203,42.969,32.227,51.758,51.758,0
61489.740,24.414,38.574,28.809,39.551,52.734,0
61489.744,4.883,40.039,30.762,18.066,-25.391,0
61489.748,6.348,39.062,35.156,24.902,-14.648,0
61489.752,29.785,35.156,32.715,47.852,19.043,0
61489.756,32.227,32.227,28.809,40.039,47.852,0
61489.760,-0.488,32.227,31.738,16.602,-16.113,0
61489.764,-8.301,35.156,36.621,17.578,-63.965,0
61489.768,13.672,33.203,32.227,39.062,4.883,0
61489.772,30.762,32.715,26.855,44.434,76.660,0
61489.776,20.996,33.691,26.855,20.996,104.492,0
61489.780,14.160,33.691,33.203,11.719,53.223,0
61489.783,29.785,35.156,34.668,32.227,60.547,0
61489.787,40.527,33.691,28.809,46.387,116.211,0
61489.791,19.531,34.180,32.227,31.250,90.820,0
61489.795,2.930,33.691,38.086,14.648,15.625,0
61489.799,9.766,34.180,37.109,25.391,22.461,0
61489.803,14.648,30.762,28.320,43.945,97.168,0
61489.807,18.066,24.902,24.902,34.668,80.566,0
61489.811,14.648,29.785,28.320,17.090,12.695,0
61489.815,21.973,31.250,29.297,26.367,4.395,0
61489.819,34.180,27.832,24.902,46.387,46.875,0
61489.822,32.715,29.297,20.996,41.504,97.656,0
61489.826,23.926,30.762,23.438,23.926,42.969,0
61489.830,17.090,32.715,32.227,27.832,20.508,0
61489.834,24.902,30.762,33.203,46.387,59.570,0
61489.838,35.156,27.344,33.691,48.828,58.594,0
61489.842,23.438,27.832,33.203,31.738,24.414,0
61489.846,7.324,27.832,24.902,19.531,-20.508,0
61489.850,9.277,30.273,28.320,35.156,-0.488,0
61489.854,22.949,27.832,36.133,50.293,102.051,0
61489.858,18.555,23.438,38.574,36.133,91.309,0
61489.862,6.348,23.926,32.227,15.625,48.340,0
61489.865,13.184,25.391,27.344,25.391,25.879,0
61489.869,26.855,22.461,24.414,49.316,34.180,0
61489.873,22.949,20.508,26.367,40.039,84.961,0
61489.877,10.742,24.902,28.320,20.020,37.598,0
61489.881,9.766,27.832,29.785,22.461,-13.184,0
61489.885,27.344,26.855,30.273,38.574,55.176,0
61489.889,37.109,25.879,27.344,41.992,73.730,0
61489.893,19.531,27.832,30.762,19.531,-42.480,0
61489.897,1.953,28.320,32.715,12.207,-74.219,0
61489.901,11.230,28.320,29.297,30.762,41.504,0
61489.905,27.832,27.832,21.973,37.109,44.922,0
61489.908,20.996,34.180,22.461,18.555,5.859,0
61489.912,11.230,37.109,33.691,9.766,-15.625,0
61489.916,24.902,32.227,38.574,28.320,-13.184,0
61489.920,42.480,32.715,31.738,41.016,55.664,1
61489.924,29.297,35.645,27.832,28.809,58.594,0
61489.928,18.555,36.621,33.691,9.766,-11.230,0
61489.932,30.273,38.574,36.133,19.043,-6.836,0
61489.936,45.898,37.109,30.762,41.504,51.270,0
61489.940,39.062,35.156,31.738,29.785,17.578,0
61489.944,13.672,37.109,37.598,13.184,-8.789,0
61489.947,13.672,35.156,39.062,19.043,-2.930,0
61489.951,37.109,35.645,32.715,42.969,12.695,0
61489.955,51.758,35.156,27.832,45.410,44.922,0
61489.959,31.738,33.203,30.273,23.438,31.738,0
61489.963,14.648,31.250,34.180,19.531,-41.992,0
61489.967,26.367,25.879,30.762,36.133,-15.625,0
61489.971,43.457,25.879,28.320,50.293,95.703,0
61489.975,31.250,27.832,27.344,31.250,59.570,0
61489.979,22.461,29.785,23.438,12.207,-20.996,0
61489.983,35.156,29.297,27.832,28.320,18.555,0
61489.987,39.062,26.367,26.367,44.922,100.098,0
61489.990,37.109,28.320,23.926,34.180,115.234,0
61489.994,31.250,32.715,28.809,14.648,-3.906,0
61489.998,32.715,33.203,31.250,20.020,-20.996,0
61490.002,46.875,31.250,25.391,40.527,51.758,0
61490.006,41.016,30.273,18.066,38.574,10.254,0
61490.010,21.973,32.227,21.484,23.438,12.207,0
61490.014,25.391,37.109,25.879,16.602,30.762,0
61490.018,38.086,36.133,23.438,33.691,31.738,0
61490.022,45.898,33.203,21.484,44.434,30.762,0
61490.026,32.715,32.227,24.902,20.996,-37.109,0
61490.030,11.230,36.133,31.250,20.996,-49.805,0
61490.033,15.137,35.645,33.203,40.527,8.301,0
61490.037,33.691,32.227,27.832,44.434,44.434,0
61490.041,32.715,34.180,26.367,30.762,12.207,0
61490.045,22.461,36.621,31.250,20.508,-19.531,0
61490.049,29.297,37.109,28.320,33.203,-12.207,0
61490.053,45.898,34.180,27.344,44.922,29.785,0
61490.057,44.922,27.832,22.949,30.273,18.066,0
61490.061,33.691,30.273,28.320,20.996,12.207,0
61490.065,35.645,34.180,35.645,31.250,-32.715,0
61490.069,41.504,29.297,29.297,43.457,-3.906,0
61490.072,36.621,27.344,23.926,45.410,78.613,0
61490.076,23.926,30.762,29.297,27.344,12.207,0
61490.080,25.391,34.180,35.645,19.531,31.250,0
61490.084,41.016,32.715,27.344,38.574,95.215,0
61490.088,48.828,31.738,24.414,44.922,91.309,0
61490.092,39.551,37.109,33.691,30.762,25.391,0
61490.096,28.809,39.062,31.738,20.020,-28.809,0
61490.100,34.668,37.598,29.785,29.785,-2.930,0
61490.104,52.734,34.668,28.809,44.922,62.988,0
61490.108,40.527,33.203,26.367,33.203,54.688,0
61490.112,17.578,35.645,28.320,17.578,-10.254,0
61490.115,19.531,35.156,26.855,26.855,3.418,0
61490.119,34.180,29.785,20.508,40.039,72.266,0
61490.123,30.762,28.320,23.926,30.762,43.457,0
61490.127,17.578,33.691,31.250,13.672,-3.418,0
61490.131,23.926,33.691,32.227,16.113,36.133,0
61490.135,37.598,29.297,29.297,41.016,62.500,0
61490.139,39.062,27.832,25.879,39.062,54.199,0
61490.143,31.250,30.762,31.738,16.113,41.016,0
61490.147,26.367,33.691,33.203,17.090,44.434,0
61490.151,29.297,31.250,33.203,43.457,50.781,0
61490.155,35.156,27.344,29.785,47.852,95.215,0
61490.158,26.367,26.855,20.508,22.949,99.121,0
61490.162,19.043,32.227,28.809,16.602,-12.695,0
61490.166,32.227,30.762,29.297,28.809,-9.277,0
61490.170,43.945,25.879,19.043,42.480,61.035,0
61490.174,29.297,26.367,25.391,33.203,64.941,0
61490.178,17.578,30.273,35.645,18.555,-5.371,0
61490.182,24.902,30.273,36.621,27.832,15.625,0
61490.186,38.086,27.344,30.273,41.504,60.059,0
61490.190,41.992,25.879,26.367,34.180,46.875,0
61490.194,20.020,27.344,32.227,12.207,62.012,0
61490.197,13.672,27.832,39.551,12.207,10.254,0
61490.201,30.273,28.320,35.156,37.598,30.273,0
61490.205,34.668,31.250,33.691,41.504,68.359,0
61490.209,23.438,31.738,38.574,19.043,39.062,0
61490.213,18.066,32.715,37.109,9.277,7.324,0
61490.217,27.344,33.691,30.762,26.367,17.090,0
61490.221,43.945,29.785,28.320,41.016,59.082,0
61490.225,43.457,29.785,37.598,22.461,40.527,0
61490.229,33.203,32.227,41.016,15.137,16.602,0
61490.233,37.598,30.273,33.203,31.738,11.230,0
61490.237,45.898,27.832,27.344,43.945,79.590,0
61490.240,37.598,26.855,28.320,36.621,51.758,0
61490.244,20.020,30.273,34.668,17.578,-16.113,0
61490.248,21.973,31.738,37.598,25.879,32.227,0
61490.252,42.480,29.785,33.691,44.922,85.449,0
61490.256,46.387,26.367,25.879,35.645,73.242,0
61490.260,33.203,28.320,28.809,18.066,22.949,0
61490.264,29.297,32.715,36.133,20.020,-15.137,0
61490.268,35.156,32.715,26.855,45.410,13.184,0
61490.272,41.504,32.715,26.367,55.176,90.820,0
61490.276,29.785,36.133,33.203,28.320,25.879,0
61490.280,20.508,37.109,34.180,14.648,-42.480,0
61490.283,27.344,35.645,30.273,35.645,17.090,0
61490.287,39.551,32.715,29.785,52.734,31.738,0
61490.291,27.832,31.738,28.809,31.738,-7.812,0
61490.295,11.719,33.203,26.855,4.883,-89.844,0
61490.299,23.926,31.738,27.832,17.578,-45.898,0
61490.303,40.527,29.785,23.926,41.504,49.316,0
61490.307,41.504,31.738,23.438,27.832,49.316,0
61490.311,27.344,38.086,26.855,5.371,3.418,0
61490.315,30.273,38.574,26.367,14.648,-13.184,0
61490.319,45.898,32.715,23.438,38.574,62.012,0
61490.322,44.922,26.367,20.508,29.785,81.543,0
61490.326,28.809,26.855,21.973,8.301,-13.672,0
61490.330,24.414,33.691,26.855,15.625,-1.465,0
61490.334,39.551,35.156,28.809,33.203,70.801,0
61490.338,48.340,32.715,25.879,39.551,66.406,0
61490.342,34.668,33.203,30.762,25.391,57.129,0
61490.346,18.066,35.156,36.621,20.996,11.230,0
61490.350,25.879,35.645,36.133,30.273,-20.508,0
61490.354,43.945,30.762,29.785,41.504,37.109,0
61490.358,34.668,26.855,24.414,30.273,28.320,0
61490.362,22.461,28.809,30.273,17.578,7.812,0
61490.365,30.762,29.297,31.738,29.297,58.594,0
61490.369,39.062,27.344,24.902,44.922,102.051,0
61490.373,32.715,30.273,28.320,36.133,130.371,0
61490.377,16.602,32.715,35.156,9.277,72.266,0
61490.381,18.555,31.738,41.016,11.230,-32.715,0
61490.385,38.086,32.715,38.086,36.621,-3.418,0
61490.389,51.758,33.691,31.738,45.410,84.961,0
61490.393,42.969,40.039,36.133,24.414,50.293,0
61490.397,37.598,44.434,36.133,13.184,1.465,0
61490.401,49.316,39.551,33.691,35.645,36.621,0
61490.405,56.641,34.668,30.762,46.875,53.223,0
61490.408,40.039,37.109,29.785,25.391,43.457,0
61490.412,27.344,38.086,37.109,10.254,13.184,0
61490.416,42.480,33.691,33.203,28.809,-11.719,0
61490.420,52.246,29.785,21.973,47.852,25.879,0
61490.424,36.621,31.250,17.578,30.762,68.359,0
61490.428,19.531,34.180,22.461,15.137,22.461,0
61490.432,23.438,36.133,25.391,25.391,-60.547,0
61490.436,44.434,36.133,25.391,46.875,27.344,0
61490.440,46.387,34.180,23.926,43.457,93.262,0
61490.444,27.344,35.156,25.879,22.949,5.371,0
61490.447,29.297,39.551,32.227,26.855,-31.738,0
61490.451,45.410,38.574,29.785,49.805,26.855,0
61490.455,55.176,34.668,25.391,53.711,72.754,0
61490.459,45.410,39.062,24.902,30.762,51.270,0
61490.463,37.598,42.480,21.973,26.367,15.625,0
61490.467,49.316,38.574,28.809,47.852,6.348,0
61490.471,58.594,31.738,33.691,53.223,22.461,0
61490.475,50.781,29.297,33.203,32.715,54.688,0
61490.479,41.504,30.762,35.156,21.973,50.781,0
61490.483,41.504,27.344,35.156,38.086,13.184,0
61490.487,57.617,29.297,30.762,61.035,49.805,0
61490.490,56.641,33.691,29.785,48.828,66.895,0
61490.494,33.203,29.297,31.250,26.367,-11.719,2
61490.498,33.691,30.273,35.156,38.574,-3.906,0
61490.502,53.223,30.762,31.738,46.387,59.082,0
61490.506,58.594,29.297,27.344,32.715,79.590,0
61490.510,40.039,31.738,31.738,23.926,41.504,0
61490.514,27.832,33.203,33.203,24.902,-2.441,0
61490.518,38.574,33.203,29.785,41.992,2.930,0
61490.522,48.828,31.250,22.461,47.852,29.297,0
61490.526,32.227,32.227,27.344,26.855,38.574,0
61490.530,16.602,36.621,35.645,21.973,-22.461,0
61490.533,30.273,37.109,34.180,33.691,18.066,0
61490.537,51.270,31.250,32.715,40.039,52.246,0
61490.541,38.086,28.320,28.320,28.320,52.734,0
61490.545,18.066,33.203,23.438,19.043,16.113,0
61490.549,25.879,34.668,30.273,33.203,-15.137,0
61490.553,38.574,28.320,32.715,48.828,68.359,0
61490.557,32.715,25.391,28.809,35.156,79.102,0
61490.561,19.531,26.855,31.250,19.043,24.414,0
61490.565,22.461,27.832,31.738,32.715,10.254,0
61490.569,41.016,28.320,32.227,54.688,15.137,0
61490.572,40.039,26.367,33.203,41.992,39.062,0
61490.576,18.066,28.320,29.785,11.230,6.836,0
61490.580,15.625,32.715,32.227,13.184,-27.832,0
61490.584,30.273,31.250,33.203,39.062,46.875,0
61490.588,40.039,28.320,30.273,47.363,89.844,0
61490.592,26.367,29.785,32.227,28.320,51.758,0
61490.596,14.648,32.227,36.133,13.184,-48.828,0
61490.600,25.391,31.738,38.574,29.785,-33.203,0
61490.604,44.434,32.227,32.715,51.270,77.148,0
61490.608,38.574,33.203,30.273,32.227,62.988,0
61490.612,21.973,32.715,34.180,10.254,65.918,0
61490.615,31.738,34.180,32.227,24.902,51.270,0
61490.619,52.734,30.762,30.273,46.387,22.949,0
61490.623,46.875,29.297,29.785,41.992,27.344,0
61490.627,22.949,34.668,37.598,27.344,-21.484,0
61490.631,24.414,35.156,44.434,36.133,13.184,0
61490.635,47.363,32.715,38.574,56.152,17.090,0
61490.639,44.922,27.832,31.250,46.875,2.930,0
61490.643,24.902,30.273,30.273,24.414,44.434,0
61490.647,22.949,38.574,36.621,27.832,49.316,0
61490.651,32.715,36.621,34.668,41.504,53.223,0
61490.655,41.992,33.691,31.250,47.363,49.805,0
61490.658,27.832,31.738,29.297,36.133,-28.809,0
61490.662,15.625,30.762,31.738,21.484,-86.914,0
61490.666,25.391,32.715,35.156,32.227,16.113,0
61490.670,38.574,32.715,30.273,51.758,103.027,0
61490.674,36.621,35.156,30.762,33.203,73.242,0
61490.678,21.973,36.133,35.645,18.066,17.090,0
61490.682,24.414,36.133,36.133,36.621,-6.348,0
61490.686,46.875,33.691,32.715,53.223,29.297,0
61490.690,46.875,31.738,28.320,39.062,25.879,0
61490.694,23.438,31.738,26.855,12.207,19.043,0
61490.697,24.414,32.227,26.367,13.184,22.949,0
61490.701,39.551,32.227,24.414,36.621,60.547,0
61490.705,41.992,28.320,20.508,39.062,88.379,0
61490.709,23.438,27.832,20.508,16.602,10.742,0
61490.713,18.066,34.180,25.879,9.277,-41.504,0
61490.717,34.180,31.738,24.902,21.484,31.738,0
61490.721,41.992,28.320,20.996,36.133,100.586,0
61490.725,23.438,31.738,19.043,25.391,55.176,0
61490.729,6.348,31.738,19.531,8.789,34.180,0
61490.733,24.414,32.227,22.949,27.344,14.648,0
61490.737,44.922,33.203,23.438,44.434,14.160,0
61490.740,37.598,31.738,26.855,27.344,-13.184,0
61490.744,24.414,33.691,30.762,9.277,-13.672,0
61490.748,27.344,40.039,28.320,20.020,-0.977,0
61490.752,35.645,32.227,19.043,33.203,58.594,0
61490.756,33.691,22.949,17.578,18.066,112.305,0
61490.760,13.184,27.344,22.461,-2.441,12.695,0
61490.764,1.953,28.320,23.438,-1.953,-6.836,0
61490.768,15.137,22.949,24.414,15.137,31.250,0
61490.772,23.438,20.996,23.926,25.879,72.754,0
61490.776,12.695,26.367,28.809,9.277,53.223,0
61490.780,4.395,27.832,38.574,-0.977,-34.180,0
61490.783,15.137,27.832,36.621,22.949,33.691,0
61490.787,31.738,27.832,28.809,42.969,60.059,0
61490.791,19.043,26.855,26.855,20.996,26.367,0
61490.795,5.371,28.809,27.344,7.812,30.762,0
61490.799,18.066,31.250,29.297,23.926,31.738,0
61490.803,30.762,27.344,28.809,37.109,62.988,0
61490.807,32.227,26.855,27.344,28.320,34.180,0
61490.811,23.926,32.227,30.762,9.277,-19.531,0
61490.815,26.855,35.156,35.645,15.625,7.324,0
61490.819,41.504,30.762,28.809,37.598,43.945,0
61490.822,41.016,25.879,19.531,30.273,32.715,0
61490.826,14.160,26.855,24.902,4.883,-28.809,0
61490.830,4.883,31.738,32.715,10.254,-61.523,0
61490.834,28.320,34.668,32.227,37.109,43.457,0
61490.838,43.457,32.715,30.273,46.387,74.219,0
61490.842,35.156,31.250,30.273,30.762,-32.227,0
61490.846,28.809,32.715,31.738,18.066,-22.461,0
61490.850,34.180,32.715,32.715,31.738,1.465,0
61490.854,47.363,29.297,30.762,41.992,31.738,0
61490.858,43.457,28.809,29.785,22.949,42.969,0
61490.862,23.926,31.738,35.156,5.859,-9.277,0
61490.865,25.391,31.738,38.086,20.508,-6.348,0
61490.869,39.551,29.297,35.156,42.480,36.133,0
61490.873,34.668,27.832,33.203,36.133,51.758,0
61490.877,17.090,30.762,39.062,22.949,25.391,0
61490.881,17.578,32.715,41.016,26.855,19.531,0
61490.885,36.133,30.762,34.180,45.898,44.434,0
61490.889,41.992,31.250,35.156,52.246,30.273,0
61490.893,23.926,33.203,38.086,34.180,-5.859,0
61490.897,16.602,29.785,35.156,23.438,29.785,0
61490.901,31.738,27.832,32.227,41.504,54.688,0
61490.905,47.363,29.785,26.367,55.664,62.500,0
61490.908,33.691,33.203,30.762,32.715,67.383,0
61490.912,17.090,38.086,39.551,20.020,-5.371,0
61490.916,30.762,39.062,35.645,39.062,-4.395,0
61490.920,51.270,35.645,29.297,54.688,34.180,0
61490.924,42.969,35.645,28.320,45.410,18.066,0
61490.928,32.715,39.551,35.645,24.414,-2.441,0
61490.932,36.133,40.039,35.645,31.250,-13.672,0
61490.936,49.805,36.621,24.414,53.711,34.668,0
61490.940,56.641,34.668,26.367,49.316,52.246,0
61490.944,36.621,36.621,35.156,26.855,3.906,0
61490.947,30.762,38.086,37.109,24.902,13.184,0
61490.951,47.852,39.062,36.133,42.969,37.598,0
61490.955,54.199,36.133,27.344,41.992,84.961,0
61490.959,37.109,32.227,24.414,24.414,59.570,0
61490.963,20.996,34.668,25.879,22.461,3.418,0
61490.967,32.227,36.133,25.879,44.434,38.086,0
61490.971,44.922,32.715,23.926,50.781,80.566,0
61490.975,33.203,31.738,21.973,33.691,57.129,0
61490.979,19.531,33.203,29.785,24.902,0.000,0
61490.983,27.344,35.645,30.762,35.156,9.277,0
61490.987,46.387,33.691,27.344,59.570,91.309,0
61490.990,47.363,33.203,29.785,55.176,113.281,0
61490.994,32.227,39.062,34.180,22.949,13.672,0
61490.998,34.180,40.527,34.668,29.297,-8.301,0
61491.002,47.852,36.133,29.785,55.664,54.199,0
61491.006,48.828,30.762,24.902,46.875,48.340,0
61491.010,29.785,30.273,29.785,22.949,10.254,0
61491.014,22.461,32.227,34.180,16.602,-33.691,0
61491.018,40.527,32.227,28.320,33.691,7.812,0
61491.022,47.363,29.785,29.297,44.922,80.078,0
61491.026,32.227,31.250,35.645,24.414,14.648,0
61491.030,19.531,37.109,31.250,14.648,-46.387,0
61491.033,30.762,37.109,30.273,38.574,-8.789,0
61491.037,46.387,30.762,31.250,50.293,54.199,0
61491.041,36.621,31.738,34.180,31.250,25.879,0
61491.045,28.320,35.645,40.039,15.625,-38.086,0
61491.049,38.574,33.203,39.551,34.180,0.977,0
61491.053,49.805,30.762,35.645,60.547,77.637,0
61491.057,43.457,32.715,34.668,46.387,62.988,0
61491.061,19.531,33.203,31.250,20.996,9.766,0
61491.065,13.672,30.762,30.273,31.738,24.902,0
61491.069,29.297,28.320,31.250,49.316,73.730,0
61491.072,36.133,27.832,26.855,42.480,91.309,0
61491.076,20.996,30.762,27.832,23.438,36.621,0
61491.080,16.602,34.180,31.250,20.508,7.324,0
61491.084,36.133,30.762,30.762,40.039,84.961,0
61491.088,46.875,25.391,27.832,45.410,117.188,0
61491.092,30.273,29.785,28.320,20.996,36.133,0
61491.096,22.461,30.273,33.691,2.930,-8.301,0
61491.100,29.785,30.273,32.715,30.762,-6.348,0
61491.104,43.457,32.715,26.855,53.223,57.617,0
61491.108,32.715,32.227,27.832,34.668,37.109,0
61491.112,13.184,34.180,30.762,14.160,-27.832,0
61491.115,22.461,34.180,31.738,20.020,84.961,0
61491.119,40.527,31.738,30.273,43.945,91.797,0
61491.123,38.574,30.762,23.926,34.180,-1.953,1
61491.127,20.508,32.227,18.555,3.418,6.348,0
61491.131,18.066,33.691,20.996,4.395,46.387,0
61491.135,33.691,33.691,26.855,26.855,83.008,0
61491.139,38.086,33.691,25.391,33.691,116.211,0
61491.143,19.531,36.133,27.832,13.672,54.199,0
61491.147,12.695,34.668,29.297,6.348,22.461,0
61491.151,32.227,32.715,27.832,29.785,0.977,0
61491.155,48.828,29.785,27.344,44.922,34.668,0
61491.158,33.203,27.344,30.762,30.273,37.109,0
61491.162,13.672,29.297,36.133,16.113,-28.320,0
61491.166,22.949,30.273,33.691,33.691,-20.508,0
61491.170,37.109,28.809,30.273,55.176,44.434,0
61491.174,29.297,26.855,32.227,39.551,41.504,0
61491.178,16.602,27.832,33.691,15.137,-7.812,0
61491.182,25.391,31.738,31.738,30.762,-2.930,0
61491.186,46.387,30.273,28.809,60.547,48.828,0
61491.190,43.457,29.785,29.785,51.270,65.430,0
61491.194,23.926,32.715,32.227,16.602,41.504,0
61491.197,22.461,34.668,33.203,16.602,-8.301,0
61491.201,36.133,34.180,33.691,39.062,-43.945,0
61491.205,42.480,34.180,28.809,40.039,9.277,0
61491.209,29.297,35.156,31.250,26.855,19.531,0
61491.213,21.973,36.133,37.109,24.902,14.648,0
61491.217,34.668,38.574,30.273,47.363,58.594,0
61491.221,43.457,34.180,29.297,61.035,20.020,0
61491.225,36.133,32.227,39.062,39.062,-36.133,0
61491.229,29.785,39.062,42.480,30.273,-27.344,0
61491.233,33.691,37.598,42.480,45.410,5.859,0
61491.237,45.410,29.785,31.250,54.199,68.848,0
61491.240,46.387,25.879,26.855,41.992,104.980,0
61491.244,34.180,27.832,34.668,22.461,35.156,0
61491.248,33.691,32.715,39.062,28.809,13.672,0
61491.252,39.551,34.668,36.133,51.758,15.137,0
61491.256,41.992,31.250,31.250,50.781,65.918,0
61491.260,27.344,29.785,34.668,26.367,86.914,0
61491.264,20.996,32.715,38.574,20.508,20.996,0
61491.268,41.992,32.715,32.715,45.898,61.035,0
61491.272,47.363,31.738,24.414,48.828,133.301,0
61491.276,35.156,30.762,27.344,21.484,41.504,0
61491.280,25.391,29.297,30.762,14.160,-18.555,0
61491.283,34.180,28.809,26.855,31.738,-3.418,0
61491.287,51.270,27.344,27.832,48.828,51.758,0
61491.291,35.156,30.273,33.203,34.180,68.848,0
61491.295,18.066,32.715,33.691,8.789,-29.297,0
61491.299,30.273,30.273,30.273,21.484,-48.828,0
61491.303,40.039,28.320,27.344,47.852,55.664,0
61491.307,30.273,28.320,25.391,40.039,55.176,0
61491.311,12.207,32.227,22.461,13.184,2.441,0
61491.315,20.020,33.203,30.273,13.184,-7.812,0
61491.319,44.434,28.809,34.668,37.598,40.527,0
61491.322,41.016,27.344,29.785,39.551,46.387,0
61491.326,18.066,28.320,31.738,13.672,20.996,0
61491.330,13.672,31.738,35.645,15.137,15.137,0
61491.334,31.250,29.297,33.203,46.387,9.277,0
61491.338,41.016,24.414,26.367,45.898,42.969,0
61491.342,30.762,24.902,27.344,17.090,37.109,0
61491.346,23.438,28.809,34.180,15.137,13.672,0
61491.350,32.227,32.227,32.227,39.062,51.270,0
61491.354,45.898,27.832,26.367,46.387,55.176,0
61491.358,38.086,27.344,23.926,26.855,28.809,0
61491.362,25.391,30.273,25.391,15.625,-36.621,0
61491.365,24.902,27.832,22.949,23.438,-12.695,0
61491.369,34.180,25.879,24.414,37.109,59.082,0
61491.373,35.645,29.785,26.855,27.832,73.242,0
61491.377,22.949,31.738,27.832,9.766,35.156,0
61491.381,24.414,33.203,34.668,20.508,-45.898,0
61491.385,41.016,33.691,37.598,45.898,13.672,0
61491.389,45.410,28.809,30.273,49.316,106.934,0
61491.393,33.691,31.738,31.738,26.855,80.566,0
61491.397,23.438,35.156,34.180,20.020,-10.742,0
61491.401,34.180,33.691,28.809,37.109,-14.160,0
61491.405,55.176,29.297,25.879,51.270,54.199,0
61491.408,41.992,27.344,27.344,34.180,62.500,0
61491.412,20.508,33.203,26.367,12.695,9.277,0
61491.416,27.344,33.691,24.902,30.273,5.371,0
61491.420,41.504,28.809,26.855,44.434,55.664,0
61491.424,34.668,29.785,29.297,26.855,47.852,0
61491.428,22.949,31.738,33.691,14.648,-11.719,0
61491.432,34.180,34.668,31.738,30.273,-45.898,0
61491.436,48.340,30.273,22.461,47.852,-56.641,0
61491.440,49.805,23.926,18.066,42.480,-4.395,0
61491.444,33.203,29.297,23.926,19.531,18.066,0
61491.447,32.715,32.715,31.738,20.508,7.324,0
61491.451,53.711,33.691,34.180,50.293,67.871,0
61491.455,62.988,33.203,24.902,55.176,63.965,0
61491.459,44.434,32.227,23.438,28.320,30.762,0
61491.463,31.738,34.668,26.367,21.973,-23.438,0
61491.467,40.039,33.691,24.414,39.551,-21.973,0
61491.471,51.270,31.738,28.320,48.828,86.426,0
61491.475,44.434,33.691,28.809,32.715,74.707,0
61491.479,29.785,35.156,32.227,18.555,-22.949,0
61491.483,37.598,34.668,41.992,35.156,-33.203,0
61491.487,50.781,31.250,32.715,53.711,41.992,0
61491.490,43.457,27.832,25.879,37.109,58.594,0
61491.494,28.809,27.832,33.691,20.020,-47.852,0
61491.498,30.273,28.320,36.133,33.203,15.137,0
61491.502,48.340,27.832,32.715,54.688,87.402,0
61491.506,51.758,27.344,30.762,49.316,52.246,0
61491.510,34.668,25.879,27.344,23.926,41.992,0
61491.514,31.738,28.320,27.344,22.461,9.766,0
61491.518,47.852,32.227,31.738,49.805,26.367,0
61491.522,57.129,31.738,32.715,55.664,86.426,0
61491.526,39.062,29.785,33.691,32.227,43.945,0
61491.530,24.414,31.738,35.156,25.391,-18.555,0
61491.533,31.738,33.203,33.691,43.457,31.250,0
61491.537,41.992,29.297,26.367,51.758,50.781,0
61491.541,34.668,30.762,26.367,34.180,7.324,0
61491.545,19.531,33.691,28.809,15.137,0.000,0
61491.549,24.414,34.180,28.320,26.855,37.109,0
61491.553,39.551,33.691,28.320,49.805,61.523,0
61491.557,39.551,31.738,29.785,38.574,68.359,0
61491.561,26.855,35.156,33.691,19.043,47.363,0
61491.565,28.809,36.133,31.738,24.414,19.531,0
61491.569,47.363,32.227,27.344,47.852,36.133,0
61491.572,50.293,30.762,24.902,45.410,57.129,0
61491.576,27.832,32.227,26.855,24.414,63.965,0
61491.580,19.043,35.156,32.227,22.461,42.480,0
61491.584,27.344,33.203,30.762,39.551,59.570,0
61491.588,37.109,28.809,28.320,49.805,133.301,0
61491.592,29.297,27.344,34.668,34.668,85.938,0
61491.596,17.578,26.855,35.156,21.973,-11.719,0
61491.600,34.668,29.297,33.203,41.992,-12.695,0
61491.604,51.758,29.785,36.621,59.082,28.320,0
61491.608,35.645,25.391,32.227,36.133,32.227,0
61491.612,21.973,26.855,33.691,13.672,33.691,0
61491.615,34.668,31.738,33.203,27.344,-16.602,0
61491.619,47.852,30.273,29.297,49.805,-20.508,0
61491.623,39.062,25.391,27.344,43.457,12.695,0
61491.627,19.043,29.785,34.668,22.949,-3.418,0
61491.631,24.414,36.133,41.016,23.438,24.902,0
61491.635,46.387,33.691,35.156,52.734,28.320,0
61491.639,50.293,27.344,32.715,59.570,63.477,0
61491.643,31.738,28.320,31.738,23.438,78.125,0
61491.647,20.020,32.715,32.715,9.766,-28.320,0
61491.651,33.203,32.715,34.180,36.133,-27.832,0
61491.655,50.293,29.785,27.344,50.293,52.246,0
61491.658,42.480,34.180,28.809,33.203,23.438,0
61491.662,23.438,40.039,34.668,20.020,-29.297,0
61491.666,35.156,35.645,31.738,34.180,4.883,0
61491.670,56.152,35.156,32.227,54.199,34.180,0
61491.674,41.016,34.180,32.227,41.992,38.574,0
61491.678,22.461,32.227,29.297,24.902,38.574,0
61491.682,27.344,34.180,34.180,30.762,60.547,0
61491.686,38.574,33.203,31.738,48.828,63.965,0
61491.690,38.086,34.668,28.809,46.875,3.418,0
61491.694,24.414,40.039,32.227,23.438,-4.883,0
61491.697,22.461,37.598,28.809,20.020,16.602,0
61491.701,35.156,29.785,21.484,38.086,57.129,0
61491.705,44.922,27.344,21.484,41.016,40.527,0
61491.709,28.320,32.227,23.926,22.461,21.484,0
61491.713,19.531,33.203,26.855,13.672,46.875,0
61491.717,37.109,29.297,27.344,30.762,100.098,0
61491.721,51.758,31.738,27.344,47.852,71.289,0
61491.725,41.504,32.227,29.785,27.832,51.270,0
61491.729,19.531,33.203,29.785,10.742,47.852,0
61491.733,28.809,34.668,33.691,32.227,13.184,0
61491.737,49.316,32.227,31.250,51.270,83.496,0
61491.740,45.410,30.762,26.855,29.785,96.680,0
61491.744,32.715,31.738,28.809,16.602,57.129,0
61491.748,30.273,33.691,33.691,28.809,30.273,0
61491.752,37.598,34.180,31.250,38.086,44.922,0
61491.756,42.480,33.691,21.484,30.273,42.969,0
61491.760,24.902,36.133,22.461,9.277,-28.320,2
61491.764,17.578,37.598,22.949,13.184,-50.781,0
61491.768,31.250,35.645,16.602,37.109,-13.672,0
61491.772,44.922,34.668,20.996,46.387,0.977,0
61491.776,35.156,34.668,31.738,28.320,-6.836,0
61491.780,17.578,36.133,37.109,20.508,8.789,0
61491.783,23.926,34.668,31.738,38.086,43.457,0
61491.787,39.551,30.762,25.879,47.363,93.750,0
61491.791,28.320,32.227,31.738,30.273,31.250,0
61491.795,14.648,37.109,38.086,12.207,-37.109,0
61491.799,25.879,35.645,31.250,19.043,-31.738,0
61491.803,42.480,33.691,24.414,35.645,39.062,0
61491.807,31.738,31.738,22.461,23.438,57.617,0
61491.811,11.719,32.227,29.785,2.441,3.906,0
61491.815,22.949,37.109,33.691,10.742,1.465,0
61491.819,41.016,38.574,26.855,30.273,35.645,0
61491.822,43.457,37.109,21.484,28.809,52.246,0
61491.826,25.391,41.016,25.879,15.625,-20.508,0
61491.830,14.160,44.434,28.320,15.137,-66.895,0
61491.834,29.297,41.504,27.832,30.273,-56.641,0
61491.838,42.480,35.645,24.902,43.457,40.527,0
61491.842,28.320,35.156,24.902,31.250,74.219,0
61491.846,16.602,38.086,24.902,22.461,30.762,0
61491.850,27.832,40.039,24.414,41.504,80.078,0
61491.854,47.363,37.598,20.996,56.152,86.914,0
61491.858,47.363,35.645,22.949,37.598,42.480,0
61491.862,26.367,39.062,30.273,20.996,-0.488,0
61491.865,24.414,39.062,24.414,35.645,7.812,0
61491.869,44.922,35.156,19.531,56.641,65.918,0
61491.873,46.875,32.227,27.832,48.340,103.516,0
61491.877,23.926,33.203,38.574,25.879,15.137,0
61491.881,16.602,32.227,38.574,25.879,-5.371,0
61491.885,30.762,31.250,28.320,48.340,62.012,0
61491.889,39.551,32.227,26.855,53.223,33.691,0
61491.893,25.391,35.156,32.715,27.344,2.930,0
61491.897,20.020,37.109,30.762,21.484,-19.043,0
61491.901,32.715,31.738,26.855,38.574,22.949,0
61491.905,39.062,26.367,24.902,43.945,83.496,0
61491.908,31.250,29.785,25.391,29.785,37.109,0
61491.912,25.391,35.156,34.180,13.672,-19.043,0
61491.916,33.203,35.645,34.668,29.297,3.418,0
61491.920,40.527,32.715,30.273,50.293,45.410,0
61491.924,27.832,32.227,29.785,31.738,58.594,0
61491.928,15.137,35.156,32.715,12.695,7.324,0
61491.932,15.137,34.180,36.133,27.344,11.719,0
61491.936,23.438,33.203,34.180,50.293,22.949,0
61491.940,29.297,34.180,27.832,44.434,10.742,0
61491.944,15.625,35.156,28.320,15.137,-12.207,0
61491.947,11.719,35.156,29.297,7.812,3.906,0
61491.951,28.809,32.227,28.320,33.203,54.688,0
61491.955,39.551,30.273,28.320,38.086,26.855,0
61491.959,22.949,29.785,27.832,12.695,0.488,0
61491.963,7.812,28.809,29.297,3.906,3.906,0
61491.967,20.508,29.785,29.785,25.391,22.949,0
61491.971,31.250,28.809,26.367,41.992,71.777,0
61491.975,20.020,30.273,29.297,25.391,54.199,0
61491.979,17.578,34.668,29.785,16.113,17.090,0
61491.983,29.785,33.203,23.438,34.668,13.184,0
61491.987,43.457,28.809,19.531,46.875,16.602,0
61491.990,44.434,30.273,22.949,42.480,21.484,0
61491.994,28.320,37.109,31.738,29.785,3.906,0
61491.998,25.391,41.504,36.621,35.645,-49.805,0
61492.002,38.574,37.109,31.738,51.270,-4.883,0
61492.006,47.363,28.809,22.461,45.410,90.332,0
61492.010,28.809,30.273,26.367,19.043,62.988,0
61492.014,21.484,39.062,34.180,16.113,-10.742,0
61492.018,41.016,38.574,28.320,39.551,23.926,0
61492.022,42.480,31.250,20.508,40.039,81.543,0
61492.026,22.949,32.715,22.461,17.090,45.898,0
61492.030,5.859,34.180,28.320,9.766,-7.812,0
61492.033,13.672,30.762,30.762,26.367,22.949,0
61492.037,36.621,25.879,29.785,41.504,91.309,0
61492.041,32.715,23.926,31.250,32.227,58.594,0
61492.045,21.484,27.344,30.273,19.531,49.316,0
61492.049,27.344,29.297,26.855,38.574,113.770,0
