timestamps,TP9,AF7,AF8,TP10,Right AUX,Marker0
61347.104,10.742,46.387,41.504,32.715,37.598,0
61347.108,17.090,38.086,28.809,22.461,27.344,0
61347.112,24.902,32.715,25.391,20.508,12.207,0
61347.115,26.855,39.551,33.203,29.785,55.176,0
61347.119,31.738,41.992,40.039,41.016,82.031,0
61347.123,45.898,38.574,31.738,33.203,41.504,0
61347.127,48.340,37.109,21.484,23.438,49.805,0
61347.131,33.691,35.645,32.227,34.180,58.105,1
61347.135,20.020,37.598,43.945,42.480,68.359,0
61347.139,20.508,38.574,42.969,33.203,104.492,0
61347.143,25.879,31.738,35.645,20.996,25.391,0
61347.147,20.020,28.320,35.156,27.344,-18.555,0
61347.151,8.301,30.762,40.039,36.621,40.039,0
61347.155,13.672,31.738,40.527,36.621,37.109,0
61347.158,35.645,31.250,35.645,25.879,16.113,0
61347.162,40.527,32.227,29.785,23.926,15.137,0
61347.166,30.273,37.109,32.715,34.180,22.949,0
61347.170,29.297,37.598,36.621,36.133,-2.930,0
61347.174,33.203,35.156,36.133,24.902,-35.156,0
61347.178,36.621,31.738,34.180,22.949,-35.645,0
61347.182,27.832,31.250,33.203,25.391,-80.078,0
61347.186,25.391,35.645,37.598,35.645,-59.570,0
61347.190,38.086,32.227,33.691,32.715,21.484,0
61347.194,42.969,28.809,27.344,18.555,38.086,0
61347.198,40.527,32.715,30.273,31.250,11.719,0
61347.201,31.738,37.109,37.109,41.992,49.316,0
61347.205,34.180,37.109,36.133,30.273,43.457,0
61347.209,43.945,33.203,26.367,22.461,8.301,0
61347.213,38.574,32.715,25.391,23.926,23.926,0
61347.217,20.020,35.156,31.738,31.250,21.973,0
61347.221,20.508,33.691,32.715,34.668,27.832,0
61347.225,36.133,29.785,31.250,25.391,-12.695,0
61347.229,36.133,32.715,29.297,26.367,-39.551,0
61347.233,28.809,39.551,30.273,46.387,46.387,0
61347.237,32.227,38.574,34.668,53.223,110.352,0
61347.240,42.480,28.809,31.250,36.133,101.074,0
61347.244,40.527,23.926,28.809,30.762,91.797,0
61347.248,33.203,30.762,34.180,47.363,73.242,0
61347.252,23.926,32.715,36.133,47.852,48.828,0
61347.256,29.297,25.391,31.738,32.227,63.477,0
61347.260,34.668,21.484,25.391,23.926,69.336,0
61347.264,23.926,28.809,28.809,27.832,84.473,0
61347.268,14.160,32.227,42.480,40.039,112.793,0
61347.272,23.438,29.297,41.016,44.434,113.281,0
61347.276,36.133,29.785,29.297,27.832,67.871,0
61347.280,31.738,27.832,28.809,22.461,83.008,0
61347.283,22.949,28.809,32.227,37.109,102.051,0
61347.287,26.855,32.227,28.809,38.574,89.355,0
61347.291,38.086,30.762,23.926,22.461,50.293,0
61347.295,32.715,25.391,23.926,18.555,0.977,0
61347.299,24.902,27.344,31.738,34.180,101.074,0
61347.303,19.043,30.762,40.039,38.086,87.891,0
61347.307,26.367,29.297,37.598,26.367,39.062,0
61347.311,40.527,30.762,36.133,32.227,36.621,0
61347.315,42.480,35.156,37.109,40.527,58.105,0
61347.319,29.785,40.039,37.109,34.668,110.840,0
61347.323,28.809,37.109,31.738,27.832,119.629,0
61347.326,36.621,31.738,28.320,20.020,54.199,0
61347.330,26.855,33.691,33.691,24.414,79.590,0
61347.334,17.578,42.969,41.016,37.109,108.398,0
61347.338,20.508,41.992,40.527,31.738,82.520,0
61347.342,32.715,33.203,33.203,17.578,103.516,0
61347.346,34.180,35.156,24.902,15.137,72.266,0
61347.350,23.926,41.504,22.949,32.227,76.172,0
61347.354,26.855,42.969,34.668,38.086,95.215,0
61347.358,39.551,39.551,35.156,23.438,36.133,0
61347.362,43.457,38.574,32.227,23.926,-31.250,0
61347.365,25.879,38.086,34.668,33.691,-4.883,0
61347.369,8.301,41.992,35.156,42.480,26.367,0
61347.373,14.648,44.434,34.180,42.480,3.418,0
61347.377,27.344,38.574,27.344,28.809,45.410,0
61347.381,26.367,37.109,24.902,32.227,59.570,0
61347.385,20.996,45.898,34.668,48.828,41.992,0
61347.389,31.250,44.922,36.621,42.969,83.984,0
61347.393,41.504,37.598,28.320,30.762,85.938,0
61347.397,38.574,38.574,25.391,32.715,10.742,0
61347.401,25.391,41.992,31.250,39.551,37.109,0
61347.405,28.809,44.434,37.109,42.969,78.613,0
61347.408,42.480,40.039,36.621,31.250,40.527,0
61347.412,38.574,33.691,32.227,24.414,-5.859,0
61347.416,17.090,33.691,26.855,27.344,7.812,0
61347.420,10.254,37.109,25.391,22.461,48.828,0
61347.424,18.555,32.715,23.438,13.184,50.293,0
61347.428,26.367,29.297,26.367,16.113,20.996,0
61347.432,23.438,32.227,30.762,29.785,59.570,0
61347.436,5.859,37.109,30.273,31.738,86.426,0
61347.440,24.414,36.133,31.250,22.461,41.992,0
61347.444,44.922,33.691,34.668,20.996,7.812,0
61347.448,29.785,34.180,37.109,28.809,12.695,0
61347.451,9.277,33.691,41.992,40.039,3.906,0
61347.455,6.836,32.715,40.527,29.785,49.805,0
61347.459,22.949,31.250,31.250,19.531,55.176,0
61347.463,21.484,33.691,29.785,27.344,-1.953,0
61347.467,3.906,41.016,35.645,34.180,10.254,0
61347.471,6.348,37.598,28.809,32.715,39.062,0
61347.475,22.461,29.297,22.949,19.531,55.664,0
61347.479,26.367,31.250,25.391,21.484,-0.488,0
61347.483,20.996,37.109,31.250,34.180,-12.695,0
61347.487,18.555,40.039,31.738,34.180,16.602,0
61347.490,29.785,37.109,27.832,27.832,16.113,0
61347.494,42.480,32.715,31.738,25.879,-1.465,0
61347.498,38.086,34.180,30.273,34.668,-57.129,0
61347.502,29.785,38.086,27.832,42.969,-51.270,0
61347.506,45.410,38.086,26.367,36.133,-27.832,0
61347.510,56.152,35.156,21.973,30.273,-35.645,0
61347.514,42.969,39.551,24.902,39.062,-50.781,0
61347.518,25.879,42.969,28.809,43.457,-13.672,0
61347.522,31.250,37.109,25.391,34.180,43.945,0
61347.526,46.875,34.668,20.508,26.855,-0.488,0
61347.530,49.316,36.133,20.020,28.320,19.043,0
61347.533,37.109,38.574,29.785,38.086,50.293,0
61347.537,30.762,41.504,38.086,41.992,34.668,0
61347.541,38.574,35.645,22.461,27.344,44.922,0
61347.545,41.992,30.273,15.625,25.879,-42.480,0
61347.549,32.715,33.691,25.879,36.621,-41.016,0
61347.553,22.949,38.574,28.809,42.969,53.223,0
61347.557,32.715,35.156,26.367,27.344,43.457,0
61347.561,39.551,26.367,20.020,15.625,1.465,0
61347.565,28.809,28.809,26.367,29.297,30.762,0
61347.569,14.648,35.645,35.645,33.203,20.996,0
61347.573,24.414,34.180,29.785,29.785,-14.160,0
61347.576,38.086,28.320,24.414,18.555,25.879,0
61347.580,35.156,31.250,25.391,22.949,14.648,0
61347.584,24.414,37.109,29.297,40.527,-34.180,0
61347.588,26.855,38.086,31.738,39.062,-1.953,0
61347.592,39.551,38.086,29.297,28.320,48.828,0
61347.596,41.016,38.574,29.785,27.832,-20.508,0
61347.600,32.715,42.969,35.645,30.762,-23.926,0
61347.604,32.715,45.410,37.109,33.203,25.391,0
61347.608,48.828,44.434,31.738,26.855,5.859,0
61347.612,46.875,39.062,32.227,25.879,-26.855,0
61347.615,31.738,36.621,33.203,36.133,11.719,0
61347.619,27.344,42.480,34.668,37.109,7.812,0
61347.623,41.992,37.598,30.762,23.438,7.324,0
61347.627,56.152,32.227,24.414,17.090,47.363,0
61347.631,42.969,37.109,29.785,26.855,10.742,0
61347.635,18.066,41.016,35.645,37.598,-45.410,0
61347.639,20.996,36.621,24.414,29.297,-11.230,0
61347.643,35.645,28.809,19.531,19.043,8.301,0
61347.647,23.926,26.367,26.855,20.996,26.367,1
61347.651,5.371,31.738,36.621,30.273,85.938,0
61347.655,8.301,26.855,39.551,32.227,98.633,0
61347.658,27.344,19.043,29.785,17.578,26.367,0
61347.662,39.062,22.461,26.855,20.020,-75.684,0
61347.666,30.273,26.367,29.297,34.668,-36.133,0
61347.670,23.438,27.832,25.391,38.574,24.414,0
61347.674,29.297,25.391,23.438,36.133,-1.953,0
61347.678,34.180,21.484,25.391,29.297,2.930,0
61347.682,28.809,26.367,26.855,31.250,17.090,0
61347.686,19.043,34.668,30.273,39.062,-6.836,0
61347.690,32.715,32.715,32.227,30.762,28.320,0
61347.694,45.410,30.762,32.227,20.996,0.000,0
61347.698,39.062,32.715,25.391,23.438,-9.766,0
61347.701,26.367,35.645,29.297,36.133,45.898,0
61347.705,28.809,35.156,30.273,35.645,30.273,0
61347.709,44.922,30.762,28.320,24.414,-27.344,0
61347.713,44.434,29.785,32.227,30.273,-13.672,0
61347.717,31.250,35.645,37.598,41.504,46.387,0
61347.721,27.832,38.086,40.527,37.109,66.406,0
61347.725,38.574,30.273,26.367,24.414,8.301,0
61347.729,45.898,27.832,19.043,24.414,11.719,0
61347.733,32.227,36.133,33.203,34.668,28.809,0
61347.737,22.949,42.480,41.504,41.016,4.883,0
61347.740,27.344,37.109,34.180,31.250,12.207,0
61347.744,27.832,24.902,28.320,23.926,37.109,0
61347.748,20.508,25.879,34.180,35.156,59.082,0
61347.752,13.672,29.785,40.039,46.387,44.434,0
61347.756,28.809,22.949,36.621,36.621,25.391,0
61347.760,40.527,22.949,29.297,23.926,29.297,0
61347.764,32.715,26.367,34.180,34.668,19.043,0
61347.768,20.508,30.762,42.969,42.480,36.621,0
61347.772,27.344,35.645,39.062,34.668,41.016,0
61347.776,43.457,34.668,35.156,27.832,2.441,0
61347.780,39.551,34.668,42.969,28.809,0.977,0
61347.783,21.973,34.668,39.551,34.180,9.766,0
61347.787,18.066,37.598,30.762,33.691,55.664,0
61347.791,29.297,36.133,32.715,21.484,56.152,0
61347.795,28.809,35.156,33.691,24.414,39.062,0
61347.799,18.066,38.574,31.738,34.668,13.672,0
61347.803,10.254,33.203,31.738,31.250,7.812,0
61347.807,23.926,29.785,30.762,21.484,20.508,0
61347.811,33.203,29.785,24.414,17.090,-0.488,0
61347.815,26.367,35.156,28.320,31.250,-3.906,0
61347.819,17.090,42.480,37.598,38.086,49.316,0
61347.823,23.926,36.621,38.086,27.832,73.730,0
61347.826,40.527,33.203,33.691,24.414,-4.395,0
61347.830,36.133,37.598,29.297,26.367,-26.855,0
61347.834,19.531,40.527,38.574,35.645,47.852,0
61347.838,19.531,37.598,41.016,25.879,28.809,0
61347.842,27.832,29.785,24.902,7.324,-25.879,0
61347.846,24.414,27.344,24.414,17.090,49.316,0
61347.850,10.742,32.715,33.691,28.809,50.293,0
61347.854,2.930,34.668,33.203,26.367,45.898,0
61347.858,20.508,33.691,27.344,19.043,73.730,0
61347.862,31.250,32.715,28.320,18.555,18.555,0
61347.865,22.949,36.133,34.668,32.715,52.246,0
61347.869,24.902,41.016,35.645,36.621,63.965,0
61347.873,44.434,41.016,33.691,26.367,-3.418,0
61347.877,50.293,39.062,24.902,19.043,6.836,0
61347.881,40.527,40.527,26.855,26.855,76.172,0
61347.885,35.645,42.480,36.133,39.551,99.609,0
61347.889,32.715,43.457,33.691,34.668,-3.418,0
61347.893,29.785,41.504,33.203,20.020,4.883,0
61347.897,33.691,40.527,29.785,30.762,21.484,0
61347.901,23.438,42.969,29.785,41.992,-17.578,0
61347.905,23.926,44.434,38.574,39.062,51.270,0
61347.908,40.527,42.480,34.180,36.133,23.926,0
61347.912,38.086,39.551,28.809,33.203,-40.039,0
61347.916,25.879,40.527,38.086,36.621,35.645,0
61347.920,27.832,41.992,32.227,42.480,74.707,0
61347.924,39.062,41.992,26.367,34.180,64.941,0
61347.928,38.086,38.574,33.691,25.391,28.320,0
61347.932,24.902,33.203,35.156,30.273,-0.977,0
61347.936,15.625,35.645,38.086,34.180,57.129,0
61347.940,23.438,37.109,38.574,26.367,20.508,0
61347.944,27.832,29.785,29.785,16.602,-21.484,0
61347.948,20.020,30.273,29.297,22.949,13.184,0
61347.951,10.254,37.109,38.086,31.738,38.086,0
61347.955,24.414,40.527,38.086,30.762,34.668,0
61347.959,41.504,38.574,33.203,21.484,16.602,0
61347.963,35.645,36.133,33.203,27.832,-14.160,0
61347.967,22.949,38.574,39.551,41.016,41.016,0
61347.971,27.832,40.039,41.016,36.621,69.824,0
61347.975,41.504,36.621,34.668,27.832,20.508,0
61347.979,43.457,34.180,33.691,26.367,24.902,0
61347.983,36.621,39.062,33.203,37.598,91.797,0
61347.987,35.645,43.945,34.180,50.293,72.754,0
61347.990,47.363,37.598,34.668,42.480,11.230,0
61347.994,51.758,32.715,30.762,36.621,5.859,0
61347.998,43.945,36.133,25.879,43.945,35.645,0
61348.002,33.203,38.574,40.039,45.898,37.109,0
61348.006,42.480,36.621,47.363,42.480,20.996,0
61348.010,55.664,31.738,32.227,31.738,59.570,0
61348.014,48.828,35.645,37.598,40.527,38.086,0
61348.018,30.762,39.551,48.828,52.734,27.832,0
61348.022,39.062,37.598,41.992,42.480,50.293,0
61348.026,54.688,37.598,33.691,29.297,57.617,0
61348.030,47.363,37.109,31.250,32.227,31.738,0
61348.033,29.785,41.992,36.621,44.922,21.973,0
61348.037,28.320,41.992,34.180,48.828,62.012,0
61348.041,44.922,34.180,24.414,37.598,53.711,0
61348.045,47.852,32.715,26.367,34.668,10.742,0
61348.049,32.227,35.156,29.297,43.945,60.547,0
61348.053,23.438,38.086,33.691,48.828,65.918,0
61348.057,37.109,34.668,35.645,39.551,-11.230,0
61348.061,46.387,32.227,32.715,36.621,-24.414,0
61348.065,40.527,38.086,33.691,45.410,16.113,0
61348.069,27.832,40.527,42.969,54.199,45.898,0
61348.073,30.762,34.668,42.480,45.898,40.039,0
61348.076,37.109,34.180,32.715,26.855,52.734,0
61348.080,30.273,36.133,28.320,26.367,77.148,0
61348.084,15.137,36.621,31.738,35.156,68.848,0
61348.088,13.672,30.273,36.133,26.367,18.555,0
61348.092,27.344,22.461,32.715,18.555,29.785,0
61348.096,25.879,25.391,28.320,23.926,35.156,0
61348.100,12.695,28.320,31.738,34.180,33.691,0
61348.104,9.766,29.785,35.645,34.668,54.199,0
61348.108,28.809,28.809,29.785,27.344,59.570,0
61348.112,36.133,27.344,32.227,28.320,28.320,0
61348.115,20.508,28.809,36.621,34.180,53.711,0
61348.119,20.996,36.133,37.109,37.598,72.754,0
61348.123,33.691,36.133,30.762,29.297,16.602,0
61348.127,38.574,30.273,27.344,23.438,40.527,0
61348.131,38.086,34.668,35.645,34.668,39.062,0
61348.135,25.391,37.598,36.621,38.574,-15.625,0
61348.139,28.809,33.691,29.297,26.855,45.410,0
61348.143,38.086,30.273,25.879,17.578,37.109,0
61348.147,35.156,29.785,23.926,24.414,-43.945,0
61348.151,24.414,33.691,26.367,32.227,27.344,0
61348.155,23.926,36.621,34.668,35.645,83.496,2
61348.158,37.109,34.668,32.715,28.320,19.531,0
61348.162,39.551,31.738,28.809,28.809,-59.570,0
61348.166,30.762,37.109,38.086,43.945,-75.195,0
61348.170,28.320,41.992,38.574,48.828,32.715,0
61348.174,39.551,39.062,36.133,39.551,50.293,0
61348.178,41.016,31.738,32.715,27.344,12.695,0
61348.182,28.320,32.715,41.504,35.156,11.719,0
61348.186,16.113,34.668,46.387,41.016,-13.672,0
61348.190,19.043,29.785,32.227,32.227,15.137,0
61348.194,24.902,26.855,26.855,25.879,45.898,0
61348.198,22.461,31.738,35.156,30.762,22.461,0
61348.201,12.207,39.551,44.434,40.039,12.207,0
61348.205,18.555,37.109,39.551,33.691,5.371,0
61348.209,29.785,29.785,33.691,22.949,39.551,0
61348.213,31.738,34.668,39.551,33.691,43.457,0
61348.217,24.414,41.992,42.969,42.480,20.508,0
61348.221,20.996,37.109,40.039,32.715,32.227,0
61348.225,38.574,32.715,33.691,29.785,1.465,0
61348.229,46.387,34.180,33.203,36.621,38.574,0
61348.233,38.086,37.109,43.945,49.316,34.668,0
61348.237,31.250,39.551,46.387,47.852,-27.344,0
61348.240,39.062,37.109,39.551,35.156,23.926,0
61348.244,46.387,29.785,31.250,34.180,34.668,0
61348.248,38.086,33.691,30.273,40.527,26.367,0
61348.252,27.344,39.062,43.945,47.363,57.617,0
61348.256,32.715,37.598,44.434,36.133,-0.977,0
61348.260,41.504,33.203,37.109,25.391,-18.066,0
61348.264,30.762,31.738,37.109,37.598,62.988,0
61348.268,19.531,38.574,44.434,49.805,0.000,0
61348.272,31.250,40.039,43.945,43.945,1.953,0
61348.276,48.828,36.133,38.086,30.762,65.430,0
61348.280,53.223,32.715,37.109,33.203,38.086,0
61348.283,41.992,37.598,39.551,46.875,43.457,0
61348.287,29.785,40.527,38.574,48.828,54.688,0
61348.291,30.762,34.668,26.855,36.621,7.324,0
61348.295,36.133,35.156,29.297,38.086,-34.180,0
61348.299,28.320,41.504,36.133,46.875,-23.438,0
61348.303,19.531,41.504,36.133,48.828,22.949,0
61348.307,30.762,34.180,31.738,38.574,53.711,0
61348.311,37.109,29.785,29.785,28.809,39.551,0
61348.315,26.855,30.762,32.715,33.203,70.312,0
61348.319,19.531,37.598,40.527,41.504,67.871,0
61348.323,33.691,37.598,41.016,30.273,46.387,0
61348.326,42.480,23.438,31.738,15.137,66.895,0
61348.330,33.691,26.855,31.738,22.461,34.668,0
61348.334,16.113,40.039,38.086,35.645,9.766,0
61348.338,12.695,38.086,35.645,32.715,65.918,0
61348.342,28.320,39.062,28.809,22.461,64.941,0
61348.346,30.762,40.039,23.438,26.367,50.293,0
61348.350,21.973,40.527,24.414,32.227,7.812,0
61348.354,19.531,40.527,35.156,31.738,60.059,0
61348.358,32.715,37.109,39.062,18.555,87.891,0
61348.362,41.016,39.062,32.227,11.230,37.109,0
61348.365,31.738,41.992,27.344,26.855,-12.207,0
61348.369,24.414,36.621,30.762,29.785,-8.789,0
61348.373,40.527,32.715,31.250,22.949,26.855,0
61348.377,55.176,34.180,29.785,20.508,32.715,0
61348.381,46.387,36.621,33.203,26.367,16.113,0
61348.385,36.621,45.410,41.992,41.016,22.949,0
61348.389,49.316,45.898,38.574,37.598,64.941,0
61348.393,55.176,40.039,29.297,29.297,63.965,0
61348.397,42.969,43.945,35.156,37.109,39.551,0
61348.401,26.855,45.898,40.039,41.504,18.555,0
61348.405,26.367,39.551,36.621,39.062,17.578,0
61348.408,46.875,36.133,35.645,39.062,32.227,0
61348.412,51.270,38.086,42.480,45.410,10.254,0
61348.416,31.250,42.969,47.363,52.246,3.418,0
61348.420,24.902,42.969,41.992,51.758,41.504,0
61348.424,42.480,40.039,36.621,43.457,20.996,0
61348.428,47.852,36.133,33.203,35.645,-27.832,0
61348.432,37.598,38.086,32.227,35.645,-27.344,0
61348.436,25.391,41.504,34.668,35.156,35.156,0
61348.440,43.457,40.527,36.133,31.250,97.168,0
61348.444,58.105,36.621,32.715,24.902,45.410,0
61348.448,54.199,37.598,29.297,30.273,20.508,0
61348.451,37.109,41.992,29.297,36.133,74.219,0
61348.455,25.879,41.992,37.109,34.668,89.844,0
61348.459,37.109,40.527,36.621,27.344,43.945,0
61348.463,30.762,36.621,32.715,28.320,23.926,0
61348.467,20.508,38.574,41.016,42.480,33.203,0
61348.471,33.203,37.109,41.016,39.551,76.660,0
61348.475,44.922,34.180,33.203,27.344,65.918,0
61348.479,42.969,35.645,32.227,31.250,-3.418,0
61348.483,31.250,40.039,33.203,45.410,11.230,0
61348.487,23.438,41.992,36.133,46.875,-23.438,0
61348.490,35.156,36.133,31.250,39.551,-35.645,0
61348.494,40.527,33.691,25.391,36.621,23.926,0
61348.498,29.785,33.203,32.227,39.551,32.715,0
61348.502,25.391,34.668,40.039,42.969,41.992,0
61348.506,38.574,38.086,36.133,38.574,22.949,0
61348.510,46.387,33.691,28.320,36.133,-11.719,0
61348.514,40.527,35.156,27.344,45.410,19.531,0
61348.518,26.855,40.527,35.645,49.316,54.199,0
61348.522,32.715,39.062,41.992,41.016,55.664,0
61348.526,46.387,33.203,32.715,25.879,21.973,0
61348.530,41.992,29.785,24.902,22.461,-13.184,0
61348.533,30.273,34.180,29.297,32.715,-35.645,0
61348.537,30.273,37.109,30.762,33.203,-6.836,0
61348.541,41.016,33.691,21.973,23.926,21.973,0
61348.545,41.504,33.203,20.508,20.996,12.207,0
61348.549,30.762,37.109,32.227,31.250,34.180,0
61348.553,23.438,38.086,41.504,39.062,75.684,0
61348.557,37.109,36.133,42.480,30.273,10.254,0
61348.561,42.969,33.691,32.227,22.949,-3.418,0
61348.565,23.438,34.668,32.227,39.062,48.340,0
61348.569,11.719,37.598,40.039,53.223,13.672,0
61348.573,26.367,37.109,36.621,42.480,43.457,0
61348.576,35.645,34.668,32.715,34.668,20.996,0
61348.580,36.133,38.086,31.738,36.621,20.508,0
61348.584,37.109,41.016,35.156,45.410,79.590,0
61348.588,42.969,41.504,37.109,47.852,39.062,0
61348.592,52.246,39.551,33.691,38.086,13.184,0
61348.596,44.922,35.645,35.156,33.691,-34.668,0
61348.600,35.645,41.016,38.574,46.875,26.855,0
61348.604,38.086,43.457,37.598,54.199,60.547,0
61348.608,51.270,37.598,34.180,39.062,-0.488,0
61348.612,55.176,35.645,29.297,34.668,54.199,0
61348.615,43.457,39.062,33.203,43.945,49.316,0
61348.619,41.016,41.504,37.109,50.293,-7.324,0
61348.623,50.293,38.574,32.715,43.945,24.902,0
61348.627,49.805,34.668,32.227,32.227,-2.930,0
61348.631,33.691,37.109,37.598,35.156,9.766,0
61348.635,18.066,41.504,46.875,44.922,86.914,0
61348.639,30.273,39.062,43.945,36.621,67.871,0
61348.643,47.852,38.086,38.086,30.273,31.738,0
61348.647,45.898,40.039,42.969,38.574,18.555,0
61348.651,33.691,38.086,42.969,48.828,17.090,0
61348.655,30.273,35.156,39.062,42.480,12.207,0
61348.658,45.410,31.250,37.598,25.391,1.465,0
61348.662,43.457,32.715,32.715,24.414,12.695,0
61348.666,26.367,37.109,38.574,40.527,31.738,0
61348.670,22.461,36.621,44.922,41.992,47.363,0
61348.674,37.109,33.691,38.086,25.879,52.246,0
61348.678,51.758,33.691,39.062,29.297,-28.809,0
61348.682,47.852,33.691,43.457,35.645,-72.754,0
61348.686,32.715,34.668,40.527,39.062,3.418,0
61348.690,31.250,32.227,38.574,37.109,0.488,0
61348.694,40.039,29.785,37.598,30.273,34.180,0
61348.698,34.180,34.668,36.133,34.180,24.414,0
61348.701,18.555,38.086,36.133,41.016,-19.043,0
61348.705,15.625,36.621,41.504,42.969,23.438,0
61348.709,25.391,35.156,36.133,29.297,41.504,0
61348.713,24.414,32.227,35.645,28.320,4.883,0
61348.717,9.766,32.715,42.480,48.828,-24.414,0
61348.721,12.695,38.574,37.598,44.434,92.773,0
61348.725,20.508,39.062,28.320,17.090,122.070,0
61348.729,17.578,41.016,24.902,11.230,79.102,0
61348.733,4.883,41.992,29.297,26.367,62.500,0
61348.737,1.465,36.621,31.738,24.902,79.102,0
61348.740,18.066,31.738,24.902,13.184,53.711,0
61348.744,30.762,33.203,22.461,16.113,3.418,0
61348.748,23.926,35.156,28.320,32.715,41.016,0
61348.752,12.695,36.133,27.832,40.039,71.777,0
61348.756,27.344,37.109,20.508,23.438,7.324,0
61348.760,42.969,37.109,16.602,14.160,-34.668,0
61348.764,33.203,39.062,19.043,19.531,37.598,0
61348.768,22.461,40.527,23.438,29.785,2.441,0
61348.772,28.809,40.527,22.949,29.297,-20.996,0
61348.776,36.133,40.039,21.484,20.020,24.902,0
61348.780,37.598,40.039,28.320,23.438,42.969,0
61348.783,28.809,38.086,30.762,34.180,32.227,0
61348.787,29.297,37.109,26.855,30.273,9.277,0
61348.791,41.992,34.180,23.926,16.113,20.508,0
61348.795,41.992,30.273,22.461,22.461,13.184,0
61348.799,31.738,30.273,27.832,37.598,99.121,0
61348.803,27.344,34.668,32.227,38.086,94.727,0
61348.807,34.668,34.180,30.762,30.273,-9.277,0
61348.811,35.645,30.273,30.762,24.414,-26.855,0
61348.815,20.996,34.180,34.180,29.785,-1.465,0
61348.819,13.184,40.039,36.133,35.645,51.758,0
61348.823,29.297,35.645,25.879,26.855,37.598,0
61348.826,26.367,29.297,21.484,20.996,35.156,0
61348.830,12.695,27.832,29.297,23.926,61.035,0
61348.834,10.254,33.203,37.109,32.227,92.285,2
61348.838,17.578,35.645,40.527,31.250,73.730,0
61348.842,31.250,34.180,35.156,23.438,24.414,0
61348.846,30.273,35.156,26.367,26.367,26.367,0
61348.850,11.230,36.621,25.391,30.273,19.531,0
61348.854,7.324,38.574,32.715,33.203,41.992,0
61348.858,28.809,37.598,30.273,24.902,13.672,0
61348.862,38.574,36.621,23.438,20.996,-8.301,0
61348.865,25.391,38.574,27.832,26.855,55.176,0
61348.869,20.996,42.969,37.109,31.738,63.477,0
61348.873,33.203,40.527,35.645,27.344,-25.391,0
61348.877,33.203,32.227,28.320,20.508,-15.625,0
61348.881,20.508,32.227,26.367,27.344,41.504,0
61348.885,8.301,38.574,33.691,34.668,63.477,0
61348.889,23.926,36.133,37.598,33.691,82.031,0
61348.893,46.875,28.320,26.367,26.855,18.066,0
61348.897,43.457,32.715,27.832,28.809,-18.066,0
61348.901,25.879,38.574,35.156,41.504,44.922,0
61348.905,22.949,35.156,28.320,36.621,73.730,0
61348.908,30.273,29.785,26.367,20.996,22.949,0
61348.912,29.785,26.855,32.227,22.949,-5.371,0
61348.916,18.555,30.273,36.621,32.715,-41.504,0
61348.920,22.949,33.203,38.086,31.738,1.465,0
61348.924,42.480,30.762,38.574,25.391,61.035,0
61348.928,48.828,32.715,38.086,23.926,-5.371,0
61348.932,31.738,38.574,40.039,32.715,7.324,0
61348.936,19.531,41.016,43.945,40.527,82.031,0
61348.940,27.832,35.156,39.062,29.785,53.711,0
61348.944,28.809,26.855,31.250,18.555,-0.488,0
61348.948,27.344,31.250,38.086,27.344,4.395,0
61348.951,23.926,36.621,41.016,36.621,-15.625,0
61348.955,35.156,35.156,36.621,34.668,-3.906,0
61348.959,53.223,35.645,32.227,21.973,29.785,0
61348.963,39.551,33.203,28.809,19.531,13.184,0
61348.967,22.461,36.133,37.109,36.133,10.742,0
61348.971,22.949,39.062,41.504,38.574,37.598,0
61348.975,35.645,35.645,35.645,25.391,50.293,0
61348.979,37.598,29.297,25.879,20.508,33.691,0
61348.983,30.273,30.762,25.391,31.250,48.828,0
61348.987,28.320,40.527,29.297,32.227,85.938,0
61348.990,33.691,35.645,26.367,22.461,60.059,0
61348.994,32.227,31.250,20.020,22.461,3.906,0
61348.998,22.461,34.180,21.973,30.273,-10.742,0
61349.002,15.625,38.086,36.133,34.180,43.457,0
61349.006,21.484,39.062,31.738,22.949,70.801,0
61349.010,37.109,36.133,27.832,22.461,3.906,0
61349.014,32.715,33.691,30.273,32.715,-14.160,0
61349.018,20.996,33.691,31.250,41.504,78.613,0
61349.022,28.320,33.691,33.691,41.992,89.844,0
61349.026,48.340,33.203,28.809,30.762,12.695,0
61349.030,51.270,33.203,26.855,35.156,19.043,0
61349.033,35.156,36.621,32.715,50.293,53.223,0
61349.037,37.598,40.039,37.598,49.805,29.297,0
61349.041,42.480,33.691,33.691,41.016,76.172,0
61349.045,38.574,30.273,33.691,42.969,10.742,0
61349.049,32.715,35.645,41.504,54.199,-37.598,0
61349.053,26.367,34.180,42.480,55.176,20.508,0
61349.057,30.762,28.320,33.203,39.551,18.066,0
61349.061,42.480,28.809,28.809,29.785,19.531,0
61349.065,33.691,35.156,33.691,35.156,14.648,0
61349.069,20.508,37.109,40.527,42.969,29.297,0
61349.073,32.715,36.133,36.133,35.645,71.777,0
61349.076,47.363,35.645,31.250,29.297,46.387,0
61349.080,45.410,38.574,29.785,35.645,24.902,0
61349.084,35.156,44.434,41.504,48.340,25.879,0
61349.088,36.621,39.062,42.969,40.039,35.156,0
61349.092,45.898,34.668,33.203,26.367,33.203,0
61349.096,44.922,37.598,36.621,26.367,19.043,0
61349.100,35.645,39.551,41.016,34.180,42.480,0
61349.104,36.621,39.551,43.457,39.062,30.762,0
61349.108,45.898,36.133,37.109,30.273,14.648,0
61349.112,43.457,35.645,30.762,24.902,0.488,0
61349.115,36.133,42.969,40.527,32.715,-30.273,0
61349.119,31.250,44.922,48.828,39.062,-10.742,0
61349.123,29.785,35.645,37.598,26.855,27.832,0
61349.127,31.250,34.668,31.738,19.043,0.000,0
61349.131,27.344,37.598,33.203,26.367,-10.254,0
61349.135,20.020,36.133,30.273,28.809,28.809,0
61349.139,28.320,36.133,29.785,22.461,13.672,0
61349.143,39.551,35.645,31.738,18.555,-0.977,0
61349.147,40.039,38.574,33.203,23.438,3.418,0
61349.151,26.855,38.574,39.062,28.809,-15.625,0
61349.155,26.855,37.109,44.922,30.762,-24.414,0
61349.158,39.062,34.668,36.621,16.113,48.828,0
61349.162,42.480,35.645,28.809,14.648,52.246,0
61349.166,34.668,41.504,30.762,31.250,39.551,0
61349.170,28.320,40.039,37.109,35.156,74.707,0
61349.174,29.785,34.668,33.691,23.926,43.945,0
61349.178,33.203,32.715,25.879,24.902,27.344,0
61349.182,33.203,34.668,28.809,39.551,30.273,0
61349.186,25.879,36.621,33.203,42.969,50.781,0
61349.190,33.203,36.621,29.785,32.715,9.277,0
61349.194,37.109,30.273,28.809,27.344,-64.941,0
61349.198,35.156,30.762,34.668,37.598,8.301,0
61349.201,30.273,36.133,35.645,45.410,37.598,0
61349.205,32.715,34.180,32.227,40.527,66.406,0
61349.209,43.945,30.762,29.785,27.344,81.055,0
61349.213,41.016,34.180,28.320,27.344,25.879,0
61349.217,27.832,36.133,36.133,36.133,48.828,0
61349.221,26.855,33.691,35.156,36.133,26.855,0
61349.225,41.504,30.762,25.391,32.227,39.551,0
61349.229,42.969,24.902,22.461,31.250,14.648,0
61349.233,30.762,28.320,29.297,41.016,-18.555,0
61349.237,26.367,32.227,28.320,45.410,53.711,0
61349.240,37.598,28.809,17.090,25.391,51.758,0
61349.244,43.945,26.367,22.461,21.484,8.301,0
61349.248,34.668,28.320,33.203,38.086,43.945,0
61349.252,27.832,32.227,35.645,45.410,37.598,0
61349.256,41.992,34.180,35.645,38.086,48.828,0
61349.260,55.664,28.320,30.273,26.367,138.184,0
61349.264,43.457,28.809,29.785,33.691,100.098,0
61349.268,19.043,34.180,36.621,44.434,78.125,0
61349.272,22.949,31.738,37.598,38.574,60.547,0
61349.276,37.109,25.879,35.156,32.715,19.043,0
61349.280,29.785,27.832,34.668,37.109,32.227,0
61349.283,13.672,33.691,37.598,41.992,6.836,0
61349.287,13.672,32.715,33.691,36.621,7.812,0
61349.291,33.691,28.809,26.367,24.414,40.527,0
61349.295,38.086,30.273,29.297,28.320,39.551,0
61349.299,24.414,37.109,36.621,40.039,31.738,0
61349.303,17.578,35.156,40.039,41.504,41.504,0
61349.307,31.250,29.297,34.180,29.785,90.332,0
61349.311,40.039,31.738,31.250,28.809,72.266,0
61349.315,27.344,33.203,38.086,36.133,25.879,0
61349.319,23.438,37.598,32.715,37.109,58.105,0
61349.323,33.203,39.062,25.879,34.180,72.266,0
61349.326,37.109,36.621,30.273,26.367,21.973,0
61349.330,32.227,38.574,36.621,32.227,14.160,0
61349.334,18.066,39.062,38.574,38.086,29.785,0
61349.338,16.113,34.180,33.691,27.344,21.973,0
61349.342,29.297,32.715,26.855,16.602,-17.090,0
61349.346,32.227,35.645,28.809,21.484,-57.617,0
61349.350,22.461,36.133,36.621,31.738,44.922,0
61349.354,21.973,38.086,38.086,31.738,76.660,0
61349.358,41.016,37.598,37.598,20.020,52.246,0
61349.362,43.945,30.762,35.156,19.043,94.727,0
61349.365,26.367,30.273,35.156,35.156,40.527,0
61349.369,15.625,36.133,40.039,41.504,-35.156,0
61349.373,24.902,32.715,40.527,37.109,-13.184,0
61349.377,29.785,29.297,38.086,26.367,20.020,0
61349.381,28.809,33.203,39.062,32.227,35.645,0
61349.385,23.438,34.668,36.621,42.480,68.359,0
61349.389,23.926,33.203,32.227,32.715,53.711,0
61349.393,32.227,33.691,30.762,22.949,69.824,0
61349.397,30.273,32.715,34.180,29.785,50.293,0
61349.401,26.855,37.598,41.504,42.480,25.879,0
61349.405,29.785,37.109,43.457,39.062,36.621,0
61349.408,43.945,32.227,39.551,26.855,20.508,0
61349.412,48.340,30.273,42.480,31.250,29.785,0
61349.416,30.273,31.250,40.527,38.086,51.270,0
61349.420,22.949,32.715,37.598,37.598,87.891,0
61349.424,33.203,33.691,35.645,23.438,18.555,0
61349.428,38.574,31.738,25.391,18.066,-17.578,0
61349.432,35.156,32.715,26.855,28.809,40.039,0
61349.436,27.344,41.992,35.645,31.738,43.457,0
61349.440,32.715,39.551,34.668,20.020,7.324,0
61349.444,34.668,34.668,30.762,15.625,54.688,0
61349.448,27.832,38.086,34.668,26.367,54.688,0
61349.451,15.625,36.621,35.645,32.715,8.301,0
61349.455,24.902,39.062,37.598,31.250,29.785,0
61349.459,38.086,40.039,34.668,24.902,9.277,0
61349.463,34.668,38.086,35.645,31.250,12.207,0
61349.467,25.391,43.457,45.898,45.898,44.434,0
61349.471,25.391,43.945,41.504,41.504,40.039,0
61349.475,35.645,41.016,37.598,28.320,-8.789,0
61349.479,34.180,41.992,30.762,26.855,-14.648,1
61349.483,26.855,43.457,23.926,35.645,34.180,0
61349.487,24.414,43.457,36.133,44.434,70.312,0
61349.490,32.715,37.109,40.039,28.809,26.855,0
61349.494,37.598,35.645,39.062,18.555,8.301,0
61349.498,30.762,37.109,44.434,35.156,62.500,0
61349.502,20.508,39.062,48.828,41.016,0.488,0
61349.506,33.691,36.133,44.434,28.320,-54.688,0
61349.510,43.945,32.715,41.016,28.320,-44.434,0
61349.514,28.809,34.180,41.504,35.645,-4.395,0
61349.518,19.043,37.109,43.457,38.574,37.598,0
61349.522,30.762,35.156,46.875,29.297,-1.465,0
61349.526,38.086,30.762,37.598,18.555,-2.930,0
61349.530,30.273,32.715,34.180,25.391,29.785,0
61349.533,18.066,38.574,41.992,39.062,36.621,0
61349.537,24.902,37.598,41.504,37.598,10.254,0
61349.541,35.645,32.715,38.574,25.879,-3.906,0
61349.545,35.156,30.273,37.598,25.879,1.953,0
61349.549,31.738,34.180,44.922,41.992,19.043,0
61349.553,27.832,39.062,49.316,48.340,55.664,0
61349.557,36.133,37.109,33.691,35.645,66.895,0
61349.561,44.434,34.180,31.250,29.297,26.367,0
61349.565,41.504,33.203,43.945,44.922,-4.883,0
61349.569,32.715,37.109,50.781,56.152,45.898,0
61349.573,35.156,31.738,43.457,34.180,107.422,0
61349.576,36.621,27.832,35.156,19.531,23.438,0
61349.580,38.574,32.715,32.715,25.879,-3.906,0
61349.584,37.598,35.156,37.109,41.992,28.320,0
61349.588,34.668,32.227,37.598,37.598,28.809,0
61349.592,42.969,30.273,28.809,19.531,-18.066,0
61349.596,37.598,31.738,30.273,25.879,-78.125,0
61349.600,15.137,31.738,36.133,38.574,-3.906,0
61349.604,8.789,34.180,35.645,35.645,76.660,0
61349.608,24.902,34.180,29.297,21.484,59.570,0
61349.612,29.785,34.180,30.762,19.043,36.133,0
61349.615,15.625,36.133,32.715,26.367,61.523,0
61349.619,9.277,36.133,25.879,27.344,78.613,0
61349.623,24.902,33.203,24.414,17.090,28.320,0
61349.627,30.273,31.250,31.250,11.719,-12.207,0
61349.631,18.555,31.250,32.227,19.043,-0.488,0
61349.635,14.648,35.645,35.645,32.715,16.602,0
61349.639,23.926,32.227,34.668,23.926,-19.531,0
61349.643,32.715,24.902,31.250,14.160,-76.172,0
61349.647,26.855,32.715,36.621,28.320,-25.879,0
61349.651,19.043,40.527,42.480,39.062,51.758,0
61349.655,24.902,37.598,38.086,33.203,32.227,0
61349.658,41.504,26.855,28.809,24.902,-5.859,0
61349.662,42.480,24.902,27.832,30.762,-12.207,0
61349.666,29.297,33.203,35.645,45.898,5.859,0
61349.670,31.738,33.691,37.598,49.316,52.734,0
61349.674,37.598,25.879,32.715,37.598,29.785,0
61349.678,27.832,20.508,26.367,26.855,15.137,0
61349.682,20.996,23.438,28.320,35.156,19.043,0
61349.686,13.184,26.367,31.250,41.992,26.855,0
61349.690,19.043,23.926,26.855,31.738,75.195,0
61349.694,33.691,27.832,23.926,25.879,29.785,0
61349.698,27.344,30.762,29.785,28.809,-31.250,0
61349.701,10.742,29.297,31.250,30.273,-5.371,0
61349.705,18.555,25.879,23.926,25.391,30.762,0
61349.709,33.691,20.508,24.902,17.090,50.293,0
61349.713,25.391,20.020,30.762,19.531,69.336,0
61349.717,13.672,27.832,41.992,32.715,40.527,0
61349.721,18.066,31.738,36.133,30.273,56.641,0
61349.725,23.438,21.973,23.438,15.137,76.660,0
61349.729,21.484,19.531,25.879,15.625,81.055,0
61349.733,12.207,28.809,30.762,33.203,57.617,0
61349.737,12.207,33.203,35.156,37.109,41.016,0
61349.740,24.902,26.855,28.320,18.066,57.617,0
61349.744,24.902,23.438,24.414,15.625,-30.273,0
61349.748,20.996,27.832,33.203,31.250,-15.625,0
61349.752,17.090,30.273,35.645,39.551,82.031,0
61349.756,20.996,26.367,26.855,23.926,41.504,0
61349.760,23.926,23.438,20.508,13.672,16.113,0
61349.764,10.742,26.855,21.973,16.602,-13.184,0
61349.768,2.930,31.250,30.273,28.320,-10.254,0
61349.772,16.113,30.762,28.809,28.320,31.250,0
61349.776,24.902,28.320,19.531,12.207,41.992,0
61349.780,16.602,25.879,22.461,18.066,-15.137,0
61349.783,3.418,28.809,25.391,29.297,-15.137,0
61349.787,9.277,32.227,21.973,25.391,118.164,0
61349.791,21.973,30.762,17.090,15.625,77.637,0
61349.795,20.996,34.668,23.438,17.090,28.809,0
61349.799,16.602,38.086,30.762,29.297,84.473,0
61349.803,15.137,35.156,31.250,30.273,123.535,0
61349.807,21.973,32.715,29.297,20.996,61.035,0
61349.811,27.344,37.109,29.297,19.043,11.719,0
61349.815,20.996,40.527,37.598,27.832,49.805,0
61349.819,16.602,39.551,34.668,27.832,69.336,0
61349.823,29.297,39.062,24.902,21.484,53.711,0
61349.826,40.527,36.621,25.879,21.973,68.359,0
61349.830,35.645,33.691,26.367,23.926,60.059,0
61349.834,20.508,37.109,29.297,31.738,38.086,0
61349.838,26.367,40.039,34.180,32.715,36.621,0
61349.842,44.434,38.086,31.250,25.391,33.691,0
61349.846,39.551,34.668,31.738,27.832,31.738,0
61349.850,20.020,32.715,34.668,35.645,6.836,0
61349.854,19.043,37.109,36.133,41.992,-21.484,0
61349.858,34.668,34.668,32.715,26.367,-15.625,0
61349.862,33.203,25.391,18.555,15.625,48.828,0
61349.865,21.484,30.273,20.996,31.250,61.523,0
61349.869,20.996,35.156,32.715,33.203,-5.371,0
61349.873,27.344,30.762,25.391,22.949,35.156,0
61349.877,27.832,30.273,19.043,19.531,65.430,0
61349.881,20.020,36.621,28.320,22.949,34.180,0
61349.885,11.230,40.039,33.691,33.203,91.309,0
61349.889,21.484,35.156,28.320,28.809,117.676,0
61349.893,32.227,28.809,24.414,20.508,8.789,0
61349.897,30.762,30.273,28.320,26.855,16.113,0
61349.901,18.555,31.738,33.203,34.668,35.645,0
61349.905,14.160,28.320,30.273,31.738,32.715,0
61349.908,30.273,28.809,26.855,20.508,23.926,0
61349.912,32.227,34.180,25.391,24.414,-30.273,0
61349.916,20.020,42.969,30.273,42.969,-41.992,0
61349.920,20.508,41.016,32.227,45.410,29.785,0
61349.924,26.367,31.738,25.391,26.855,78.125,0
61349.928,25.391,27.832,26.367,23.926,14.160,0
61349.932,19.531,30.762,31.250,38.574,16.602,0
61349.936,14.648,34.180,35.156,41.992,62.500,0
61349.940,31.250,33.691,30.273,33.691,57.129,0
61349.944,40.039,30.273,26.855,25.879,32.227,0
61349.948,22.949,31.250,32.715,28.809,-6.836,0
61349.951,16.113,39.551,36.133,41.504,14.648,0
61349.955,28.320,42.480,37.109,38.086,44.434,0
61349.959,36.621,35.645,34.668,26.367,53.223,0
61349.963,31.250,31.738,31.250,29.785,-3.418,0
61349.967,20.020,35.156,34.668,43.945,-70.312,0
61349.971,22.461,35.156,37.598,41.016,-24.902,0
61349.975,36.621,32.715,38.574,31.250,22.461,0
61349.979,34.668,30.273,39.551,34.180,33.691,0
61349.983,22.461,33.203,41.992,46.875,25.391,0
61349.987,26.855,39.551,40.039,44.434,45.410,0
61349.990,43.457,39.551,35.156,30.273,-2.930,0
61349.994,43.457,38.086,32.715,33.203,-30.273,0
61349.998,33.203,39.062,33.203,39.551,-2.930,0
61350.002,22.461,39.062,36.621,41.992,28.809,0
61350.006,25.391,33.691,36.621,34.668,29.785,0
61350.010,24.902,26.367,33.203,28.809,21.484,0
61350.014,2.441,25.391,34.668,30.273,36.621,0
61350.018,-20.996,29.297,36.133,29.297,50.781,0
61350.022,-10.254,30.273,38.086,29.297,66.406,0
61350.026,-0.977,28.809,36.621,26.367,68.848,0
61350.030,-13.672,31.738,36.133,30.273,72.754,0
61350.033,-20.508,34.180,38.574,43.457,20.020,0
61350.037,-12.695,36.133,39.062,44.434,23.438,0
61350.041,3.906,33.691,37.109,29.297,18.555,0
61350.045,-2.930,29.785,28.809,29.297,37.109,0
61350.049,-28.320,31.250,32.227,45.898,66.406,0
61350.053,-36.621,35.156,39.551,43.945,29.297,0
61350.057,-24.414,35.156,33.203,28.809,32.715,0
61350.061,-24.902,30.762,28.320,33.691,67.871,1
61350.065,-35.156,34.668,33.203,41.504,59.570,0
61350.069,-37.109,39.551,36.621,42.969,41.504,0
61350.073,-22.461,35.645,37.109,41.016,43.945,0
61350.076,-8.789,33.691,34.668,35.645,1.953,0
61350.080,-17.090,36.621,25.879,34.668,-0.488,0
61350.084,-29.785,40.039,34.668,40.039,30.762,0
61350.088,-18.555,38.574,44.434,37.109,-8.301,0
61350.092,-4.395,34.668,38.574,24.902,4.395,0
61350.096,-5.859,34.180,38.086,29.785,15.625,0
61350.100,-17.578,35.645,43.457,39.062,-5.859,0
61350.104,-25.879,35.645,36.133,34.180,44.922,0
61350.108,-13.672,32.715,30.762,24.414,79.590,0
61350.112,-2.441,31.738,35.156,24.902,23.438,0
61350.115,-7.812,33.203,37.598,36.621,-0.977,0
61350.119,-17.578,38.086,41.016,40.527,52.246,0
61350.123,-7.324,34.668,40.527,32.715,87.891,0
61350.127,10.742,32.715,36.621,30.762,33.691,0
61350.131,12.207,36.621,31.250,38.574,0.000,0
61350.135,8.789,41.992,35.156,44.434,40.527,0
61350.139,27.344,40.039,37.598,35.645,85.938,0
61350.143,42.969,29.785,26.367,25.879,107.910,0
61350.147,35.156,29.785,32.227,33.203,42.480,0
61350.151,20.508,33.691,38.086,44.434,26.367,0
61350.155,30.273,34.180,36.133,43.945,11.230,0
61350.158,50.293,31.738,32.227,34.180,-15.137,0
61350.162,53.223,32.227,37.109,38.574,17.090,0
61350.166,43.945,37.598,45.410,51.758,52.734,0
61350.170,43.457,34.668,44.922,51.270,66.895,0
61350.174,52.246,27.344,38.086,32.227,35.645,0
61350.178,58.594,22.949,28.809,29.297,41.504,0
61350.182,52.734,26.367,30.273,40.527,54.688,0
61350.186,49.805,34.180,36.133,41.504,119.141,0
61350.190,71.777,32.715,33.203,37.598,73.242,0
61350.194,77.637,26.367,29.297,34.180,-11.719,0
61350.198,57.617,26.367,35.156,34.668,-4.395,0
61350.201,43.457,27.832,43.457,40.039,-6.836,0
61350.205,58.594,30.273,38.086,36.621,29.785,0
61350.209,73.730,30.273,29.785,30.762,24.414,0
61350.213,59.082,33.691,33.203,38.574,24.414,0
61350.217,37.598,41.992,37.109,48.340,42.969,0
61350.221,35.156,36.621,36.621,41.992,2.930,0
61350.225,48.828,26.367,30.273,29.785,-6.348,0
61350.229,48.828,24.414,27.344,27.832,30.762,0
61350.233,37.109,27.832,34.180,36.621,26.855,0
61350.237,38.574,30.762,39.062,37.598,79.590,0
61350.240,49.805,29.297,30.273,20.508,45.410,0
61350.244,50.293,25.879,23.438,17.090,35.156,0
61350.248,39.551,29.297,23.438,29.297,29.297,0
61350.252,30.762,33.691,22.949,33.691,21.973,0
61350.256,45.898,31.250,27.344,22.949,49.805,0
61350.260,53.223,26.367,28.320,21.484,-20.508,0
61350.264,42.480,28.320,34.668,32.715,-12.207,0
61350.268,35.645,33.203,41.504,35.645,40.039,0
61350.272,40.527,33.203,41.992,24.902,44.434,0
61350.276,52.734,32.715,31.250,13.672,-18.066,0
61350.280,53.711,34.668,22.949,21.484,4.395,0
61350.283,36.133,33.203,28.320,34.180,8.789,0
61350.287,33.691,33.203,28.809,31.738,24.414,0
61350.291,47.363,28.320,21.973,20.996,28.809,0
61350.295,51.758,26.367,24.414,27.344,29.785,0
61350.299,47.852,32.715,28.809,43.457,59.082,0
61350.303,39.551,33.691,31.250,40.527,20.508,0
61350.307,49.805,28.809,30.273,24.902,69.824,0
61350.311,62.988,30.273,29.785,25.391,84.473,0
61350.315,53.223,33.203,34.668,35.645,61.523,0
61350.319,41.016,35.156,37.109,39.062,77.148,0
61350.323,59.082,35.645,40.039,35.156,69.336,0
61350.326,67.871,36.133,28.809,28.809,35.156,0
61350.330,45.898,33.691,17.090,34.668,21.973,0
61350.334,33.203,34.668,31.738,46.875,20.020,0
61350.338,43.457,35.156,42.969,39.062,6.836,0
61350.342,55.176,31.250,36.133,28.320,34.668,0
61350.346,48.340,29.297,32.715,30.762,59.082,0
61350.350,28.809,31.250,37.598,36.621,58.594,0
61350.354,28.320,33.691,40.039,34.668,106.445,0
61350.358,41.504,31.250,35.645,23.926,51.758,0
61350.362,41.016,31.738,36.133,21.484,-3.418,0
61350.365,23.926,30.273,38.086,30.762,52.734,0
61350.369,13.184,27.832,35.156,32.715,38.574,0
61350.373,22.461,26.855,30.273,22.949,54.199,0
61350.377,34.180,24.902,30.762,19.043,93.750,0
61350.381,31.250,30.762,36.621,26.855,77.148,0
61350.385,18.555,37.109,38.574,35.645,73.730,0
61350.389,32.227,38.086,34.180,27.832,39.062,0
61350.393,46.875,38.086,27.832,19.043,27.832,0
61350.397,40.039,41.504,34.180,25.879,14.648,0
61350.401,23.438,45.898,40.039,34.668,-10.254,0
61350.405,20.996,41.016,33.203,27.832,-49.316,0
61350.408,32.715,32.715,24.414,16.602,-4.395,0
61350.412,32.227,32.715,23.438,16.113,28.320,0
61350.416,21.973,36.621,33.203,23.438,-11.719,0
61350.420,20.508,39.551,35.156,16.602,-1.465,0
61350.424,26.367,36.621,25.879,-0.488,36.133,0
61350.428,16.602,37.109,25.391,0.488,62.500,0
61350.432,-16.113,38.574,36.133,-0.488,33.691,0
61350.436,-23.926,40.039,42.969,-2.441,48.340,0
61350.440,-4.883,36.133,38.574,-7.324,14.160,0
61350.444,-5.859,34.180,36.621,-20.996,-46.875,0
61350.448,-24.902,38.574,41.992,-25.391,29.297,0
61350.451,-40.039,41.016,48.828,-21.484,88.867,0
61350.455,-39.062,42.480,49.805,-38.086,32.715,0
61350.459,-29.785,41.504,50.293,-54.688,0.488,0
61350.463,-28.809,41.992,45.898,-46.387,-15.137,0
61350.467,-39.551,44.922,44.922,-30.762,9.277,0
61350.471,-35.156,41.504,48.340,-32.227,53.711,0
61350.475,-25.391,33.203,37.598,-40.039,17.578,0
61350.479,-24.902,29.297,34.180,-28.809,-16.113,0
61350.483,-23.926,30.762,39.062,-7.324,-4.883,0
61350.487,-17.090,32.227,38.574,0.977,37.598,0
61350.490,2.930,26.855,34.180,-0.488,67.871,0
61350.494,20.020,25.391,36.621,11.230,28.809,0
61350.498,22.461,28.809,35.645,27.832,14.648,0
61350.502,17.578,32.715,26.367,34.180,72.754,0
61350.506,36.133,32.227,33.691,30.762,68.359,0
61350.510,45.898,27.344,37.598,30.762,33.203,0
61350.514,35.156,26.367,34.180,42.480,45.410,0
61350.518,31.250,29.297,33.691,52.246,77.637,0
61350.522,45.898,30.273,31.738,46.875,10.254,0
61350.526,67.871,27.344,30.762,41.016,-48.828,0
61350.530,63.477,28.809,33.691,49.805,0.488,0
61350.533,41.016,30.762,36.621,64.453,40.527,0
61350.537,44.434,28.320,32.715,62.500,43.945,0
61350.541,63.965,25.391,25.391,51.270,30.762,0
61350.545,66.895,27.344,26.855,55.664,15.137,0
61350.549,60.547,31.250,38.574,66.406,73.242,0
61350.553,58.105,34.668,39.062,65.918,15.625,0
61350.557,61.523,34.668,28.809,50.781,-54.688,0
61350.561,67.383,30.273,20.996,46.387,44.922,0
61350.565,60.059,31.738,23.438,60.059,85.449,0
61350.569,49.316,37.109,28.809,67.383,51.270,0
61350.573,68.359,36.133,27.344,59.082,26.855,0
61350.576,84.961,30.762,25.391,53.223,1.953,0
61350.580,73.242,25.391,27.832,59.570,27.832,0
61350.584,60.547,27.344,31.250,67.383,25.391,0
61350.588,70.312,30.762,31.738,62.500,-26.855,0
61350.592,82.520,25.879,26.855,46.875,-31.738,0
61350.596,75.684,25.391,25.391,46.387,-34.668,0
61350.600,55.176,29.297,31.250,53.223,-8.789,0
61350.604,45.898,28.320,30.762,48.340,25.391,0
61350.608,55.664,24.902,21.973,38.574,86.914,0
61350.612,56.641,23.926,16.602,38.574,85.449,0
61350.615,40.039,24.902,29.297,44.922,-2.441,0
61350.619,41.016,23.438,38.086,49.805,12.695,0
61350.623,52.246,20.996,34.180,41.992,33.203,0
61350.627,49.805,15.137,29.785,37.598,18.066,0
61350.631,41.992,16.113,32.227,50.293,3.418,0
61350.635,27.832,21.973,37.109,51.270,-10.254,0
61350.639,33.203,19.043,34.180,41.016,63.477,0
61350.643,52.734,18.555,29.785,37.109,37.598,0
61350.647,47.852,23.926,32.715,44.434,36.621,0
61350.651,32.227,26.855,41.016,49.316,91.797,0
61350.655,41.992,26.367,38.086,47.363,26.855,0
61350.658,53.223,19.043,28.809,37.598,37.598,0
61350.662,47.852,19.043,26.855,37.598,25.879,0
61350.666,39.551,23.926,28.809,46.875,-16.113,0
61350.670,44.922,25.391,26.855,48.828,58.594,0
61350.674,57.617,22.461,23.926,42.480,62.500,0
61350.678,57.617,21.973,23.438,38.574,27.832,0
61350.682,46.875,27.832,33.203,52.734,42.480,0
61350.686,43.457,31.250,40.039,57.129,49.316,0
61350.690,61.035,30.273,29.785,40.527,30.273,0
61350.694,69.824,31.738,27.344,42.480,-2.441,0
61350.698,64.453,38.086,30.273,52.246,2.930,0
61350.701,49.805,39.062,28.320,51.758,43.945,2
61350.705,48.828,37.109,23.926,45.898,78.125,0
61350.709,59.570,32.227,22.949,37.109,99.121,0
61350.713,47.852,28.809,25.879,40.039,21.484,0
61350.717,26.855,33.691,30.273,47.363,-41.016,0
61350.721,24.902,35.156,25.879,44.922,1.953,0
61350.725,33.691,29.785,20.508,34.668,41.992,0
61350.729,35.156,28.809,29.297,35.156,-4.395,0
61350.733,27.832,35.645,34.180,41.992,-8.789,0
61350.737,33.203,40.527,38.574,44.922,25.879,0
61350.740,49.316,37.109,31.738,38.086,17.578,0
61350.744,45.898,36.133,21.973,32.227,28.809,0
61350.748,31.738,36.621,28.320,40.039,16.113,0
61350.752,24.902,34.180,32.227,44.434,31.250,0
61350.756,35.156,30.273,24.902,36.133,39.551,0
61350.760,49.805,27.832,20.020,29.297,15.137,0
61350.764,43.457,31.250,29.297,37.598,25.879,0
61350.768,25.879,38.086,36.133,45.898,35.645,0
61350.772,32.715,36.133,30.762,35.156,49.805,0
61350.776,44.922,26.855,21.484,20.996,29.785,0
61350.780,39.551,26.367,23.438,29.297,2.441,0
61350.783,26.367,33.691,34.180,43.457,13.672,0
61350.787,25.879,33.203,36.621,36.621,62.500,0
61350.791,38.574,26.367,24.902,22.461,46.387,0
61350.795,39.062,26.367,24.414,19.043,10.254,0
61350.799,23.438,31.738,34.668,24.902,34.668,0
61350.803,20.508,35.645,39.062,31.738,-0.488,0
61350.807,41.016,33.691,37.109,23.926,6.348,0
61350.811,50.781,30.273,31.738,20.508,21.484,0
61350.815,38.086,30.762,36.133,27.344,31.250,0
61350.819,23.438,31.738,39.062,31.250,88.867,0
61350.823,30.273,27.344,35.645,28.320,85.449,0
61350.826,37.598,23.438,27.344,22.949,9.277,0
61350.830,21.484,28.809,30.273,27.832,8.301,0
61350.834,3.906,35.156,41.504,38.086,22.949,0
61350.838,15.137,34.668,42.969,33.691,-46.875,0
61350.842,31.250,27.344,40.039,28.320,-58.105,0
61350.846,31.250,26.855,39.551,34.668,-6.348,0
61350.850,20.996,31.250,35.645,39.062,42.480,0
61350.854,18.555,35.645,31.250,33.691,81.055,0
61350.858,32.715,33.691,27.832,22.949,37.109,0
61350.862,34.180,29.785,24.414,19.531,42.969,0
61350.865,20.020,35.645,29.297,30.762,63.965,0
61350.869,20.996,38.574,36.621,40.039,31.738,0
61350.873,35.645,30.273,34.180,29.785,56.152,0
61350.877,41.504,28.320,30.762,27.344,8.789,0
61350.881,36.133,31.738,36.133,37.109,19.531,0
61350.885,21.484,34.180,39.062,46.387,9.766,0
61350.889,33.691,33.691,33.691,40.039,-14.648,0
61350.893,45.898,30.762,22.461,29.785,29.785,0
61350.897,35.156,33.691,19.531,36.133,14.160,0
61350.901,20.996,31.250,30.762,41.504,23.438,0
61350.905,24.902,29.297,36.133,34.180,55.664,0
61350.908,37.598,28.320,30.762,28.320,43.457,0
61350.912,32.715,26.855,21.484,32.227,17.578,0
61350.916,23.438,33.691,28.320,38.086,64.453,0
61350.920,32.227,37.598,36.621,38.086,141.113,0
61350.924,53.223,32.715,28.809,29.297,70.801,0
61350.928,52.246,30.762,23.438,23.438,15.137,0
61350.932,31.250,33.691,31.250,34.668,60.547,0
61350.936,23.926,34.668,34.180,48.828,14.160,0
61350.940,34.668,30.273,25.879,35.156,35.156,0
61350.944,43.457,28.320,25.391,30.273,70.312,0
61350.948,41.016,31.738,29.785,43.945,28.320,0
61350.951,32.227,35.156,32.227,47.363,18.066,0
61350.955,32.227,36.621,35.156,41.504,3.906,0
61350.959,39.062,35.156,34.668,31.738,-50.781,0
61350.963,35.645,32.227,26.367,31.250,-21.973,0
61350.967,25.879,34.180,24.902,42.480,50.293,0
61350.971,33.691,34.180,30.273,43.457,49.316,0
61350.975,42.480,30.762,29.297,25.391,39.062,0
61350.979,34.668,32.227,30.273,19.531,26.855,0
61350.983,21.484,32.227,38.086,30.762,0.488,0
61350.987,21.973,30.273,38.574,36.621,10.742,0
61350.990,36.133,25.391,28.809,23.438,9.766,0
61350.994,37.109,25.879,31.250,23.926,1.953,0
61350.998,23.438,30.273,41.992,34.180,-2.441,0
61351.002,17.090,34.668,41.992,41.016,30.273,0
61351.006,30.762,32.715,33.691,32.715,61.035,0
61351.010,37.109,23.926,26.855,20.996,16.113,0
61351.014,29.297,27.344,32.715,35.156,48.340,0
61351.018,20.020,37.598,37.109,39.062,58.105,0
61351.022,28.320,38.086,32.715,32.715,49.316,0
61351.026,30.762,33.203,28.809,36.621,39.551,0
61351.030,26.367,35.645,32.715,41.016,63.477,0
61351.033,17.578,39.062,39.551,45.898,84.961,0
61351.037,19.531,36.133,39.062,45.898,3.418,0
61351.041,33.203,28.320,30.762,31.250,-16.602,0
61351.045,31.250,27.344,20.508,31.250,-17.578,0
61351.049,26.855,38.086,30.762,48.828,-18.066,0
61351.053,30.273,39.062,42.480,54.199,0.488,0
61351.057,41.016,32.227,32.715,37.109,33.203,0
61351.061,44.922,31.738,31.250,29.785,20.996,0
61351.065,32.227,33.691,37.109,43.945,-28.320,0
61351.069,20.996,35.645,33.691,46.387,10.254,0
61351.073,33.691,35.645,29.785,38.086,5.859,0
61351.076,44.434,35.645,30.762,32.715,-13.184,0
61351.080,39.551,36.133,33.691,34.668,8.301,0
61351.084,34.668,41.504,36.133,42.969,56.641,0
61351.088,42.480,45.410,32.227,39.551,13.184,0
61351.092,53.711,41.992,26.855,33.203,-42.969,0
61351.096,45.898,43.945,25.391,36.621,-15.137,0
61351.100,28.809,48.828,35.645,42.969,41.992,0
61351.104,37.598,49.316,43.457,44.434,56.641,0
61351.108,48.828,40.527,36.621,32.715,-21.484,0
61351.112,47.852,36.133,32.715,31.250,26.367,0
61351.115,35.645,40.527,35.156,36.621,98.145,0
61351.119,19.043,41.504,37.109,34.180,49.316,0
61351.123,33.691,37.109,29.785,26.855,9.766,0
61351.127,38.086,37.109,19.043,28.809,26.855,0
61351.131,22.461,41.504,25.391,37.598,47.852,0
61351.135,20.020,44.434,38.574,43.945,13.672,0
61351.139,37.598,41.016,34.668,36.133,12.695,0
61351.143,52.734,37.598,27.344,30.273,46.875,0
61351.147,41.016,41.016,32.715,41.016,23.438,0
61351.151,23.926,47.363,40.527,54.199,21.484,0
61351.155,25.879,44.434,45.898,53.711,45.898,0
61351.158,33.203,32.715,36.621,31.738,36.133,0
61351.162,29.785,29.297,22.461,29.297,-15.137,0
61351.166,20.996,36.621,30.762,43.945,-4.395,0
61351.170,23.926,38.574,37.109,45.410,-15.137,0
61351.174,36.133,33.203,35.156,38.086,-44.434,0
61351.178,42.480,32.715,34.668,33.203,39.551,0
61351.182,34.668,34.180,35.156,43.457,70.312,0
61351.186,24.414,37.598,36.621,44.434,58.105,0
61351.190,40.527,38.086,27.344,30.273,-34.180,0
61351.194,49.805,32.227,19.043,31.250,-5.371,0
61351.198,34.668,33.691,25.879,40.527,112.793,0
61351.201,24.414,41.016,37.109,47.363,39.062,0
61351.205,33.691,37.598,36.133,39.062,18.066,0
61351.209,48.828,31.738,25.879,28.320,-34.180,0
61351.213,41.992,37.109,25.879,36.133,-16.602,0
61351.217,23.926,43.945,32.715,42.969,63.965,0
61351.221,33.203,40.527,33.691,39.062,38.086,0
61351.225,45.898,35.645,25.391,28.320,29.297,0
61351.229,43.457,36.621,23.438,29.785,16.602,0
61351.233,32.227,41.504,31.738,41.016,30.273,0
61351.237,24.414,43.457,37.109,39.062,92.773,0
61351.240,42.480,38.574,36.133,27.832,51.270,0
61351.244,54.688,37.109,26.367,25.879,32.227,0
61351.248,41.016,41.992,27.344,37.598,50.781,0
61351.252,30.273,42.480,37.109,44.434,44.922,0
61351.256,32.715,37.598,33.691,29.297,62.500,2
61351.260,32.227,35.156,26.367,23.926,40.039,0
61351.264,26.367,38.086,30.273,37.109,25.391,0
61351.268,12.695,41.992,36.133,42.969,30.273,0
61351.272,16.602,40.039,34.668,30.273,32.227,0
61351.276,29.785,39.551,33.691,19.531,2.930,0
61351.280,22.461,39.551,23.438,25.879,20.020,0
61351.283,13.184,41.992,22.461,32.715,48.340,0
61351.287,19.531,45.410,30.762,27.344,52.246,0
61351.291,32.227,41.504,30.273,17.090,27.832,0
61351.295,30.762,38.574,34.668,24.414,-23.438,0
61351.299,16.113,41.016,33.691,26.367,-3.418,0
61351.303,24.902,40.527,32.715,26.367,37.598,0
61351.307,44.922,35.645,34.668,22.461,46.875,0
61351.311,36.133,30.273,27.344,16.602,8.789,0
61351.315,27.344,35.645,32.227,26.855,3.418,0
61351.319,26.367,42.480,40.039,36.621,30.273,0
61351.323,33.203,37.598,33.203,24.414,20.996,0
61351.326,44.434,37.109,27.344,21.484,25.391,0
61351.330,36.621,37.598,26.367,33.691,31.250,0
61351.334,24.902,36.621,33.203,36.621,62.500,0
61351.338,35.645,38.086,35.156,36.621,64.453,0
61351.342,39.062,38.086,31.738,29.297,-13.672,0
61351.346,23.926,35.156,32.715,27.832,16.602,0
61351.350,12.207,34.668,34.180,40.527,70.312,0
61351.354,15.625,37.109,37.109,39.551,83.008,0
61351.358,29.297,34.668,29.785,26.367,48.828,0
61351.362,33.203,30.273,22.461,23.438,17.090,0
61351.365,25.391,32.227,29.785,33.203,36.621,0
61351.369,25.391,36.621,34.180,36.133,6.836,0
61351.373,38.086,36.133,32.715,27.344,-32.715,0
61351.377,41.992,32.715,29.297,20.020,-20.020,0
61351.381,33.691,34.668,31.738,25.879,-17.578,0
61351.385,23.926,42.480,40.527,38.086,8.301,0
61351.389,31.250,39.551,39.062,29.297,25.879,0
61351.393,37.598,32.715,28.320,15.625,41.992,0
61351.397,27.832,33.691,27.832,22.461,73.242,0
61351.401,11.719,40.039,36.621,34.180,88.379,0
61351.405,18.555,37.598,33.691,27.832,62.500,0
61351.408,35.645,34.180,26.855,19.043,103.516,0
61351.412,33.203,36.621,25.391,22.949,67.383,0
61351.416,23.438,39.062,28.320,34.180,68.359,0
61351.420,29.297,37.109,33.203,31.250,63.965,0
61351.424,39.551,31.250,37.109,20.020,0.000,0
61351.428,40.039,29.297,40.527,22.461,-16.113,0
61351.432,25.879,32.227,41.504,31.250,33.691,0
61351.436,16.602,35.156,41.992,33.203,107.910,0
61351.440,28.320,30.762,35.645,20.996,102.539,0
61351.444,35.645,34.180,30.762,17.578,58.594,0
61351.448,31.250,44.434,36.133,32.715,46.387,0
61351.451,20.996,40.527,41.992,40.039,53.711,0
61351.455,31.738,36.133,38.086,30.273,64.941,0
61351.459,46.875,35.156,33.691,22.461,61.523,0
61351.463,39.551,34.668,33.203,26.367,7.812,0
61351.467,24.414,39.062,34.180,38.574,-15.625,0
61351.471,24.902,35.645,34.180,31.250,56.152,0
61351.475,38.086,31.738,31.250,18.555,35.645,0
61351.479,39.062,33.691,32.715,28.320,-8.789,0
61351.483,24.414,37.598,37.109,37.109,4.883,0
61351.487,25.391,39.062,35.156,37.598,20.508,0
61351.490,37.598,33.691,28.809,26.855,19.043,0
61351.494,40.039,34.180,27.344,22.461,10.254,0
61351.498,31.738,38.574,33.203,31.250,26.855,0
61351.502,26.855,39.062,36.621,35.645,33.203,0
61351.506,37.109,37.598,30.273,27.832,16.113,0
61351.510,44.434,35.645,24.902,21.973,4.883,0
61351.514,39.062,34.180,34.668,35.156,19.531,0
61351.518,28.320,39.062,39.062,46.387,57.129,0
61351.522,32.227,40.527,32.715,37.109,61.035,0
61351.526,38.086,36.621,26.367,27.344,31.250,0
61351.530,32.715,37.598,26.855,31.738,43.457,0
61351.533,17.090,42.969,32.715,39.551,89.355,0
61351.537,20.996,43.457,37.109,36.133,56.152,0
61351.541,39.062,39.062,31.250,24.414,2.930,0
61351.545,39.062,36.621,27.832,27.344,-1.953,0
61351.549,23.926,37.598,31.738,40.039,71.289,0
61351.553,17.090,40.527,28.809,41.504,104.004,0
61351.557,33.691,41.504,26.367,29.785,45.410,0
61351.561,42.969,38.086,26.855,28.320,58.594,0
61351.565,32.227,40.039,30.273,41.504,49.316,0
61351.569,25.391,41.016,34.180,42.969,64.453,0
61351.573,37.598,37.598,27.832,27.832,74.707,0
61351.576,47.852,39.062,29.785,27.344,-43.945,0
61351.580,40.527,39.062,35.156,36.133,-19.043,0
61351.584,31.738,41.016,40.039,44.434,78.613,0
61351.588,42.480,39.551,46.875,38.574,52.246,0
61351.592,49.316,32.715,33.203,27.344,24.414,0
61351.596,41.504,35.156,28.809,30.273,11.719,0
61351.600,29.297,39.551,37.598,40.039,11.230,0
61351.604,29.785,37.598,35.645,41.992,40.039,0
61351.608,40.527,33.691,29.785,29.785,81.543,0
61351.612,38.574,32.227,29.785,30.273,59.082,0
61351.615,29.785,35.645,36.133,42.480,32.227,0
61351.619,22.461,37.598,38.574,43.457,17.578,0
61351.623,23.438,32.715,33.691,29.297,19.531,0
61351.627,30.762,31.250,26.855,24.902,77.148,0
61351.631,24.414,34.180,25.879,35.156,66.895,0
61351.635,10.254,36.621,31.250,40.527,10.254,0
61351.639,21.973,34.668,25.879,26.855,60.059,0
61351.643,41.016,34.180,23.438,19.531,76.660,0
61351.647,33.203,32.227,28.320,27.344,18.555,0
61351.651,20.020,33.691,27.832,38.086,41.016,0
61351.655,29.785,34.180,25.391,39.062,67.383,0
61351.658,45.898,29.297,25.879,25.879,31.250,0
61351.662,42.969,30.273,30.273,24.902,-48.828,0
61351.666,29.297,33.691,39.062,35.645,-67.383,0
61351.670,30.273,34.180,39.062,37.598,-8.789,0
61351.674,44.434,29.785,30.762,28.809,-31.250,0
61351.678,39.062,28.320,22.949,23.926,-41.992,0
61351.682,30.273,35.156,24.414,32.227,-13.672,0
61351.686,28.320,38.574,32.227,39.062,13.672,0
61351.690,35.156,33.203,29.785,29.785,55.176,0
61351.694,42.969,32.715,31.250,30.273,28.809,0
61351.698,40.527,38.086,32.715,43.945,-19.531,0
61351.701,28.809,41.016,33.203,51.270,-14.160,0
61351.705,33.203,37.109,35.156,43.457,75.195,0
61351.709,43.945,34.180,32.715,32.715,67.871,0
61351.713,33.203,34.180,38.574,38.086,-4.395,0
61351.717,20.508,29.785,41.504,43.945,10.742,0
61351.721,29.297,27.832,34.180,38.086,48.828,0
61351.725,36.621,30.762,25.879,25.879,80.078,0
61351.729,28.320,33.203,25.391,24.902,66.895,0
61351.733,15.625,38.574,32.227,38.574,-7.812,0
61351.737,17.090,43.457,35.645,37.109,18.066,0
61351.740,30.762,37.109,29.785,20.996,76.172,0
61351.744,35.645,32.227,29.297,21.484,47.363,0
61351.748,29.785,35.645,30.273,34.180,27.344,0
61351.752,20.996,40.039,32.227,40.039,5.371,0
61351.756,26.367,33.691,24.902,27.344,56.641,0
61351.760,39.062,31.738,23.438,27.832,86.426,0
61351.764,31.738,36.621,28.320,38.574,41.016,0
61351.768,23.926,38.574,29.297,37.109,61.035,0
61351.772,41.992,37.109,35.645,31.738,30.273,0
61351.776,51.270,35.156,34.668,23.438,26.367,0
61351.780,38.574,34.668,31.250,26.855,83.008,0
61351.783,23.926,36.621,33.203,40.527,53.223,0
61351.787,28.809,38.086,37.109,38.574,0.488,0
61351.791,39.551,31.250,27.832,29.785,37.109,0
61351.795,39.062,28.809,24.902,35.156,28.320,0
61351.799,29.785,34.668,33.691,44.922,16.113,0
61351.803,26.855,37.598,40.039,45.410,39.551,2
61351.807,41.504,33.691,32.227,30.273,24.902,0
61351.811,39.551,33.691,23.926,23.926,19.043,0
61351.815,22.461,37.109,31.250,30.762,34.668,0
61351.819,13.672,36.621,39.551,36.621,-3.418,0
61351.823,22.949,30.273,28.320,24.902,-22.461,0
61351.826,25.391,25.391,15.625,12.695,0.977,0
61351.830,23.926,29.785,25.391,21.484,34.668,0
61351.834,20.508,36.133,38.086,32.227,48.340,0
61351.838,25.879,40.527,37.598,31.738,28.320,0
61351.842,39.551,39.062,31.738,23.926,9.277,0
61351.846,35.645,37.598,26.367,24.414,4.395,0
61351.850,17.578,36.133,29.785,29.297,36.621,0
61351.854,13.672,33.691,36.133,30.273,56.152,0
61351.858,25.879,31.738,32.227,15.137,69.336,0
61351.862,32.715,30.762,27.344,13.672,34.668,0
61351.865,26.855,37.109,31.738,25.879,7.324,0
61351.869,23.438,39.551,35.156,27.344,1.953,0
61351.873,33.203,36.621,34.668,21.484,-36.621,0
61351.877,33.203,34.668,33.203,15.137,-54.688,0
61351.881,23.438,36.133,32.715,24.902,14.160,0
61351.885,13.672,36.133,34.180,38.086,73.242,0
61351.889,24.414,32.715,31.250,28.320,19.043,0
61351.893,32.715,30.273,30.762,15.625,42.969,0
61351.897,19.043,30.273,36.133,25.391,52.246,0
61351.901,16.113,37.598,46.875,38.574,44.434,0
61351.905,30.762,38.574,42.969,37.109,59.082,0
61351.908,39.551,34.668,35.645,31.250,22.461,0
61351.912,34.668,36.621,32.227,33.203,-15.625,0
61351.916,23.438,40.039,34.668,36.621,-25.391,0
61351.920,20.508,36.621,36.621,29.297,20.996,0
61351.924,26.855,31.250,26.367,16.602,84.473,0
61351.928,29.785,33.203,24.902,16.113,36.133,0
61351.932,20.996,40.527,37.109,30.273,-35.645,0
61351.936,16.602,42.480,41.016,32.715,35.156,0
61351.940,34.668,34.668,33.203,21.973,24.902,0
61351.944,39.062,31.250,30.762,21.484,-27.832,0
61351.948,22.461,36.133,35.156,31.738,25.391,0
61351.951,10.742,37.109,35.645,35.156,29.297,0
61351.955,23.926,35.645,26.855,26.855,19.531,0
61351.959,33.691,29.297,22.949,17.578,11.719,0
61351.963,25.879,31.250,31.250,23.438,-28.809,0
61351.967,12.207,38.086,35.645,33.691,12.695,0
61351.971,20.996,39.551,35.156,32.227,61.523,0
61351.975,35.645,39.062,37.109,23.438,63.965,0
61351.979,24.902,38.086,29.785,18.066,43.457,0
61351.983,16.602,39.062,24.414,25.879,-20.508,0
61351.987,18.555,37.109,29.297,33.691,-42.480,0
61351.990,32.227,34.668,33.203,29.785,33.203,0
61351.994,37.109,35.645,28.320,26.855,41.992,0
61351.998,27.344,41.016,26.855,36.133,33.203,0
61352.002,18.555,41.504,29.297,40.039,28.809,0
61352.006,31.250,37.109,23.926,24.902,43.945,0
61352.010,43.945,35.645,20.996,19.043,6.836,0
61352.014,38.574,41.016,28.320,31.250,-42.969,0
61352.018,34.668,45.898,35.645,37.109,12.207,0
61352.022,43.457,41.992,36.133,22.949,29.785,0
61352.026,48.828,38.086,30.762,14.648,23.926,0
61352.030,43.457,38.086,28.809,28.809,79.590,0
61352.033,28.320,41.504,35.645,43.457,67.871,0
61352.037,26.855,41.504,36.133,40.039,79.102,0
61352.041,38.086,36.621,33.691,30.273,62.988,0
61352.045,38.574,36.133,37.109,39.062,-45.410,0
61352.049,24.902,37.109,39.551,47.852,-17.578,0
61352.053,19.043,34.180,37.109,43.945,55.664,0
61352.057,33.203,33.203,38.086,35.645,40.527,0
61352.061,44.434,34.180,38.574,32.715,-2.930,0
61352.065,36.133,32.715,35.156,45.898,10.254,0
61352.069,29.785,35.156,39.551,52.246,56.641,0
61352.073,36.621,33.203,33.203,38.574,42.969,0
61352.076,45.410,29.297,25.391,27.344,18.555,0
61352.080,39.551,28.809,28.320,31.250,85.449,0
61352.084,28.809,30.762,29.785,42.480,110.840,0
61352.088,35.645,35.156,30.762,31.738,60.547,0
61352.092,38.086,30.273,30.273,16.113,35.156,0
61352.096,30.273,30.273,34.668,27.344,74.219,0
61352.100,20.996,36.133,41.504,37.109,69.824,0
61352.104,26.855,35.156,39.062,30.273,59.082,0
61352.108,41.992,31.250,34.180,22.461,80.566,0
61352.112,35.645,30.273,30.762,24.414,11.230,0
61352.115,18.066,38.086,33.203,31.738,0.488,0
61352.119,15.137,39.551,34.180,33.203,31.738,0
61352.123,27.344,37.598,33.691,28.809,1.953,0
61352.127,37.109,39.062,34.668,26.367,4.883,0
61352.131,28.320,35.645,31.250,30.762,24.414,0
61352.135,20.508,37.598,28.809,39.551,27.832,0
61352.139,36.133,38.086,33.691,33.203,42.969,0
61352.143,43.945,29.785,34.668,21.973,6.836,0
61352.147,27.832,25.879,27.344,28.320,34.180,0
61352.151,20.020,33.203,33.691,38.574,81.055,0
61352.155,29.297,36.133,38.086,35.156,69.824,0
61352.158,37.109,30.273,27.344,18.555,57.129,0
61352.162,36.621,32.227,28.320,25.391,39.551,0
61352.166,33.203,38.086,36.621,42.969,16.602,0
61352.170,34.180,34.180,34.180,36.621,49.316,0
61352.174,39.551,27.832,29.297,24.902,66.406,0
61352.178,38.086,28.809,29.785,25.391,6.348,0
61352.182,20.996,34.180,33.691,35.156,55.664,0
61352.186,15.137,35.156,35.156,40.039,85.449,0
61352.190,24.902,30.273,27.832,27.832,-5.371,0
61352.194,33.691,29.785,20.996,28.809,-21.484,0
61352.198,34.180,36.621,34.668,42.969,6.836,0
61352.201,27.832,40.039,41.504,41.016,18.555,0
61352.205,41.504,33.691,35.645,37.598,66.406,0
61352.209,52.246,27.832,32.227,34.180,96.680,0
61352.213,43.945,32.715,37.109,43.945,47.852,0
61352.217,35.645,35.645,41.504,53.711,15.137,0
61352.221,39.062,32.715,38.574,44.434,56.152,0
61352.225,50.781,29.297,37.598,34.180,29.297,0
61352.229,50.293,29.785,34.180,35.156,24.902,0
61352.233,40.527,37.598,39.551,47.852,49.805,0
61352.237,36.621,39.551,44.434,44.922,63.965,0
61352.240,50.781,34.668,35.645,26.367,35.645,0
61352.244,55.176,38.086,35.156,29.297,-21.484,0
61352.248,45.410,42.480,39.551,43.945,35.645,0
61352.252,39.062,41.504,40.527,46.875,15.625,0
61352.256,48.828,36.621,38.574,36.621,-1.953,0
61352.260,61.523,34.668,36.133,25.879,0.000,0
61352.264,44.922,37.598,41.504,34.180,-12.695,0
61352.268,35.645,39.062,43.945,47.363,28.320,0
61352.272,42.480,38.574,40.039,41.504,-17.578,0
61352.276,39.551,34.668,34.668,32.715,-28.320,0
61352.280,39.551,36.621,33.691,43.457,0.488,0
61352.283,35.645,42.969,44.434,51.270,16.602,0
61352.287,37.598,43.457,45.898,42.969,63.965,0
61352.291,45.410,38.086,34.668,32.715,48.340,0
61352.295,37.109,37.109,35.645,31.250,42.969,0
61352.299,30.273,43.945,43.945,44.434,75.195,0
61352.303,29.297,44.434,39.551,44.922,74.219,0
61352.307,37.109,38.574,33.203,32.715,66.895,0
61352.311,43.457,33.691,31.738,32.227,67.871,0
61352.315,35.156,37.109,32.715,41.992,62.988,0
61352.319,33.203,42.480,38.574,48.340,14.160,0
61352.323,44.434,41.992,35.645,42.969,11.230,0
61352.326,48.828,36.133,29.297,30.273,51.758,0
61352.330,39.551,36.621,35.645,35.156,78.125,0
61352.334,18.066,41.504,48.828,50.781,87.891,0
61352.338,20.508,40.039,45.898,34.180,70.801,0
61352.342,40.527,33.691,34.668,20.508,24.414,0
61352.346,39.062,33.203,35.156,31.250,19.531,0
61352.350,32.715,36.621,39.062,39.062,24.414,0
61352.354,37.109,37.598,39.062,37.109,75.684,0
61352.358,50.293,34.668,37.598,30.273,100.586,0
61352.362,46.387,30.762,35.645,32.715,24.414,0
61352.365,26.855,34.668,38.086,50.293,-11.719,0
61352.369,19.043,37.598,40.039,54.199,51.270,0
61352.373,28.320,32.715,30.273,35.156,-0.977,0
61352.377,33.203,28.320,22.461,28.809,-42.480,0
61352.381,20.020,29.785,20.508,37.109,34.668,0
61352.385,10.254,33.203,28.320,38.086,56.641,0
61352.389,23.438,30.762,32.715,28.320,28.320,0
61352.393,33.691,29.297,32.227,22.949,-5.371,0
61352.397,25.879,31.250,34.668,26.855,-29.785,0
61352.401,17.090,33.203,35.645,33.691,-12.207,0
61352.405,27.344,33.203,32.227,32.715,2.441,0
61352.408,42.969,31.250,26.367,24.902,-6.348,0
61352.412,43.945,32.227,29.785,32.227,-13.184,0
61352.416,29.297,34.180,38.086,47.852,35.156,2
61352.420,26.367,35.645,36.133,40.527,33.203,0
61352.424,34.180,28.320,25.391,23.438,-9.766,0
61352.428,31.250,23.438,20.020,22.949,-2.930,0
61352.432,21.973,30.762,27.344,33.203,32.227,0
61352.436,15.625,35.156,35.156,34.668,-23.926,0
61352.440,24.414,27.832,27.832,20.996,-46.387,0
61352.444,31.738,19.531,22.949,16.113,33.691,0
61352.448,29.785,26.855,29.297,28.809,32.715,0
61352.451,21.973,32.715,34.180,34.668,25.391,0
61352.455,34.180,31.738,31.738,24.902,20.996,0
61352.459,44.922,31.738,24.902,19.531,17.578,0
61352.463,27.344,30.273,26.855,22.949,11.230,0
61352.467,18.555,34.668,36.133,30.273,64.941,0
61352.471,27.344,33.691,35.645,28.809,105.469,0
61352.475,26.855,30.762,29.785,19.043,25.879,0
61352.479,24.902,33.691,31.738,23.926,-8.301,0
61352.483,16.113,33.203,30.762,30.762,8.789,0
61352.487,12.695,31.250,26.367,25.391,8.789,0
61352.490,21.973,28.320,22.949,11.230,-15.137,0
61352.494,23.926,27.832,25.879,14.648,13.672,0
61352.498,20.508,31.250,32.715,29.297,83.496,0
61352.502,15.625,34.180,25.879,25.879,52.246,0
61352.506,27.344,32.715,19.043,13.672,52.246,0
61352.510,38.086,31.738,20.996,15.137,35.645,0
61352.514,30.762,32.715,27.832,23.926,8.301,0
61352.518,17.578,35.156,35.156,26.367,49.805,0
61352.522,24.414,32.227,26.367,21.484,45.898,0
61352.526,38.086,26.855,19.531,13.672,57.617,0
61352.530,30.762,29.297,28.809,18.066,51.758,0
61352.533,14.648,30.273,37.109,30.273,36.133,0
61352.537,15.625,29.297,36.621,25.391,10.254,0
61352.541,29.297,26.855,25.879,9.277,0.488,0
61352.545,27.344,28.809,22.949,13.184,81.543,0
61352.549,15.625,33.203,27.832,26.855,98.633,0
61352.553,14.160,34.668,29.297,28.320,18.066,0
61352.557,27.344,33.203,24.902,20.020,-30.762,0
61352.561,34.180,29.297,20.996,15.625,18.555,0
61352.565,23.438,30.273,25.879,24.902,67.871,0
61352.569,16.113,31.250,29.297,32.227,80.566,0
61352.573,33.203,29.297,24.414,27.344,25.391,0
61352.576,41.504,26.855,25.391,20.020,-31.250,0
61352.580,24.902,26.855,29.785,26.367,-15.625,0
61352.584,6.836,31.738,38.086,35.156,10.742,0
61352.588,14.160,33.203,34.668,29.785,37.598,0
61352.592,33.203,30.762,25.391,22.461,-6.348,0
61352.596,36.133,33.203,30.762,25.879,-31.250,0
61352.600,22.949,37.109,40.039,33.691,17.090,0
61352.604,31.250,37.109,41.016,33.203,59.082,0
61352.608,42.969,34.668,32.227,25.879,70.801,0
61352.612,38.086,34.180,31.738,28.809,3.906,0
61352.615,25.879,38.574,38.086,37.109,-30.762,0
61352.619,18.066,35.156,35.156,33.203,25.879,0
61352.623,31.738,29.297,28.320,24.902,59.570,0
61352.627,42.969,28.320,27.344,24.414,7.812,0
61352.631,35.645,32.227,30.273,34.668,29.297,0
61352.635,30.762,36.133,31.738,46.875,37.598,0
61352.639,42.969,34.180,31.738,40.039,-2.441,0
61352.643,50.781,34.180,31.250,30.762,20.020,0
61352.647,42.480,34.180,24.902,35.156,-14.648,0
61352.651,33.691,32.227,28.320,48.340,-36.133,0
61352.655,42.480,33.691,34.180,49.316,-3.418,0
61352.658,56.152,34.668,35.156,38.574,-2.441,0
61352.662,59.570,32.227,32.227,43.457,-42.969,0
61352.666,50.781,33.203,35.645,55.176,-16.602,0
61352.670,47.363,36.621,38.574,53.223,44.922,0
61352.674,53.711,35.156,30.762,43.457,27.832,0
61352.678,48.828,32.715,27.344,40.039,-6.348,0
61352.682,27.832,35.156,29.785,41.016,26.367,0
61352.686,21.973,38.086,35.156,41.504,65.430,0
61352.690,33.203,31.250,28.320,30.273,80.078,0
61352.694,32.227,28.320,17.090,24.902,41.992,0
61352.698,29.297,33.691,26.855,31.250,26.855,0
61352.701,20.508,33.203,32.715,32.227,20.508,0
61352.705,20.996,28.809,28.809,22.461,1.465,0
61352.709,34.180,28.809,26.855,19.043,-21.973,0
61352.713,30.273,30.762,26.367,27.832,-13.672,0
61352.717,11.230,35.645,31.250,40.039,30.273,0
61352.721,20.996,33.691,31.738,31.250,46.387,0
61352.725,40.039,26.367,21.973,16.602,18.555,0
61352.729,34.668,29.297,22.949,24.414,-31.738,0
61352.733,23.438,35.645,30.273,38.086,53.223,0
61352.737,29.297,36.621,30.762,40.527,75.195,0
61352.740,38.086,30.273,27.344,28.320,-15.625,0
61352.744,35.156,27.832,20.020,30.762,2.930,0
61352.748,22.949,28.809,27.832,45.410,34.180,0
61352.752,17.090,31.250,40.039,46.875,30.762,0
61352.756,26.855,30.762,36.133,38.574,-5.371,0
61352.760,32.227,28.809,27.832,26.855,32.227,0
61352.764,29.297,30.762,28.320,33.203,77.148,0
61352.768,22.949,36.621,32.715,49.805,56.152,0
61352.772,25.879,35.156,29.297,38.086,28.809,0
61352.776,39.062,32.227,31.738,31.250,-3.418,0
61352.780,45.410,35.156,34.180,40.527,33.203,0
61352.783,36.621,39.062,32.227,45.898,90.820,0
61352.787,45.410,38.574,31.738,48.828,85.449,0
61352.791,56.641,36.133,28.809,41.992,26.367,0
61352.795,41.992,36.621,30.273,43.457,20.020,0
61352.799,33.203,41.016,37.109,48.340,46.387,0
61352.803,37.109,39.062,32.715,42.480,55.176,0
61352.807,47.363,34.668,27.832,35.156,-2.441,0
61352.811,47.363,34.180,25.391,33.203,-15.625,0
61352.815,32.715,37.598,26.855,42.969,21.484,0
61352.819,22.949,37.109,30.762,42.480,22.461,0
61352.823,36.621,31.738,24.414,32.227,25.391,0
61352.826,50.293,31.738,28.320,32.227,46.387,0
61352.830,35.156,29.785,38.086,37.109,93.750,0
61352.834,22.461,31.738,37.598,43.945,43.457,0
61352.838,42.969,31.738,34.180,36.621,-20.508,0
61352.842,53.711,27.344,32.227,29.785,48.828,0
61352.846,38.574,30.273,34.180,39.062,37.109,0
61352.850,28.809,36.133,39.551,45.898,2.930,0
61352.854,36.621,40.527,40.527,42.969,55.176,0
61352.858,45.410,41.016,37.109,31.250,3.418,0
61352.862,40.527,37.109,29.297,32.715,25.879,0
61352.865,26.855,38.574,31.738,46.875,62.500,0
61352.869,22.949,36.133,32.227,41.016,-0.488,0
61352.873,35.156,30.762,23.926,27.344,6.348,0
61352.877,37.598,32.715,24.902,27.832,42.480,0
61352.881,28.809,38.086,32.227,38.574,91.797,0
61352.885,21.484,42.480,32.227,44.922,111.816,0
61352.889,31.738,38.086,28.809,34.180,70.312,0
61352.893,42.969,36.133,26.367,22.461,-7.324,0
61352.897,26.855,37.598,29.297,29.785,-1.465,0
61352.901,15.137,39.551,34.668,34.668,19.043,0
61352.905,28.809,37.109,32.715,27.344,12.207,0
61352.908,37.598,32.227,28.320,22.949,42.480,0
61352.912,31.250,32.715,26.855,25.879,58.594,0
61352.916,21.973,35.645,32.715,31.738,28.809,0
61352.920,25.879,35.156,33.691,33.691,-11.719,0
61352.924,38.086,33.203,26.367,20.020,5.859,0
61352.928,34.668,33.691,25.391,18.555,20.508,0
61352.932,22.461,39.062,27.344,30.762,-21.484,0
61352.936,23.926,41.504,31.250,33.691,25.879,0
61352.940,36.621,35.645,32.715,20.996,50.293,0
61352.944,40.039,30.273,29.785,15.625,-0.977,0
61352.948,32.715,31.250,33.203,28.809,19.531,0
61352.951,18.066,31.738,29.785,36.133,20.020,0
61352.955,22.461,29.785,20.508,25.391,61.523,0
61352.959,37.109,25.879,24.414,16.113,22.949,0
61352.963,30.762,27.344,29.297,24.414,-4.395,0
61352.967,18.555,33.691,32.715,35.645,62.500,0
61352.971,21.973,30.273,31.738,26.367,61.523,0
61352.975,33.203,23.926,25.879,15.137,37.598,0
61352.979,35.645,22.949,28.320,21.484,49.316,0
61352.983,23.438,27.344,35.645,34.668,21.484,0
61352.987,27.344,34.180,32.715,38.574,14.648,0
61352.990,44.434,30.273,25.391,23.438,13.184,0
61352.994,41.016,28.809,27.832,22.461,8.301,0
61352.998,29.785,36.621,35.645,36.621,65.918,0
61353.002,31.250,37.109,40.039,38.574,47.852,0
61353.006,47.363,34.668,29.785,30.273,55.176,0
61353.010,50.293,33.203,23.926,25.879,65.430,0
61353.014,36.621,35.156,33.203,37.109,74.707,0
61353.018,26.855,37.109,37.598,44.434,96.191,0
61353.022,35.156,32.227,30.762,29.297,9.277,0
61353.026,46.875,29.297,17.578,18.555,-43.945,0
61353.030,44.434,30.762,21.484,30.762,50.293,0
61353.033,28.809,36.133,36.621,39.551,66.406,0
61353.037,29.785,36.621,38.574,29.297,24.414,0
61353.041,41.016,31.250,31.738,18.555,-6.836,0
61353.045,39.062,35.156,28.809,21.484,-30.762,1
61353.049,30.273,41.504,31.250,32.715,-7.324,0
61353.053,23.926,38.574,32.227,31.738,42.969,0
61353.057,31.250,32.227,29.297,15.137,23.926,0
61353.061,35.156,29.785,30.273,18.066,10.742,0
61353.065,27.832,33.691,34.180,29.785,61.523,0
61353.069,22.461,35.156,37.109,30.762,61.035,0
61353.073,30.273,29.785,32.715,20.508,8.301,0
61353.076,40.039,26.855,27.344,16.602,-5.371,0
61353.080,37.109,30.273,28.809,25.879,35.645,0
61353.084,20.020,34.180,33.691,34.668,30.273,0
61353.088,24.414,31.250,37.109,31.738,10.254,0
61353.092,37.598,29.785,33.203,23.926,15.137,0
61353.096,27.832,27.832,29.785,23.438,45.410,0
61353.100,17.578,25.879,34.180,28.809,62.012,0
61353.104,21.973,26.855,35.156,24.414,-19.043,0
61353.108,35.645,25.391,32.227,13.184,-77.148,0
61353.112,38.574,25.879,29.297,17.090,12.207,0
61353.115,29.297,35.156,32.715,31.250,81.055,0
61353.119,20.020,36.621,33.203,33.203,-2.930,0
61353.123,23.438,26.367,24.414,19.043,-37.109,0
61353.127,34.668,25.391,18.555,17.578,-28.809,0
61353.131,30.273,31.738,22.461,32.227,9.277,0
61353.135,19.043,34.668,29.297,37.598,65.918,0
61353.139,33.203,30.273,25.879,29.297,32.227,0
61353.143,45.898,26.367,21.484,26.367,-44.434,0
61353.147,39.551,27.832,24.414,43.457,-27.344,0
61353.151,31.250,32.715,32.227,49.316,20.020,0
61353.155,31.250,34.668,33.691,35.156,36.621,0
61353.158,34.180,31.250,25.391,24.414,60.059,0
61353.162,32.715,34.180,25.391,33.691,38.574,0
61353.166,23.926,40.527,24.414,44.434,66.406,0
61353.170,28.320,38.574,27.344,40.039,33.203,0
61353.174,37.109,32.227,27.344,25.391,10.254,0
61353.178,30.762,30.762,25.391,22.949,63.477,0
61353.182,19.043,33.203,25.879,32.715,63.965,0
61353.186,14.160,34.668,29.785,32.227,92.773,0
61353.190,28.320,36.621,34.180,29.785,49.316,0
61353.194,36.621,39.551,32.227,29.297,21.973,0
61353.198,32.715,38.574,33.691,37.109,50.781,0
61353.201,24.902,36.621,33.691,42.480,55.664,0
61353.205,34.180,35.645,27.344,28.809,31.738,0
61353.209,46.875,32.227,20.020,20.996,28.320,0
61353.213,37.109,31.250,23.926,27.832,52.246,0
61353.217,26.367,34.668,33.203,39.551,3.906,0
61353.221,24.414,35.645,32.715,38.086,-19.043,0
61353.225,25.879,32.715,25.391,31.250,2.930,0
61353.229,25.391,29.785,25.391,37.109,-8.789,0
61353.233,21.973,31.250,32.227,47.363,17.578,0
61353.237,26.367,33.691,33.691,44.434,55.664,0
61353.240,34.668,30.273,29.785,29.785,-9.766,0
61353.244,35.645,27.344,24.414,31.250,-0.977,0
61353.248,23.438,29.297,25.879,45.898,36.621,0
61353.252,18.555,33.691,32.715,41.992,35.156,0
61353.256,39.551,32.227,28.320,24.414,95.215,0
61353.260,41.992,28.320,22.949,19.531,24.902,0
61353.264,30.762,31.250,25.391,32.715,-60.547,0
61353.268,24.902,34.668,26.367,37.598,0.488,0
61353.272,26.855,32.227,25.879,28.809,10.742,0
61353.276,29.297,27.832,26.367,24.414,-9.277,0
61353.280,20.996,27.344,25.391,27.344,3.418,0
61353.283,14.160,32.227,28.320,38.086,47.363,0
61353.287,23.926,33.203,24.902,36.621,62.988,0
61353.291,36.133,24.902,15.625,22.461,54.199,0
61353.295,37.598,24.414,19.531,28.320,41.504,0
61353.299,26.367,31.250,27.832,39.062,-12.207,0
61353.303,25.879,31.738,29.785,40.527,20.508,0
61353.307,42.480,31.250,21.484,29.785,74.707,0
61353.311,44.434,33.203,20.020,27.832,31.250,0
61353.315,31.250,36.133,32.227,34.668,-1.465,0
61353.319,24.414,35.645,37.598,35.156,-30.762,0
61353.323,36.621,32.227,30.762,29.297,-26.855,0
61353.326,47.852,29.785,27.344,25.879,28.809,0
61353.330,39.551,32.715,32.227,35.645,17.090,0
61353.334,29.297,36.621,34.668,39.062,14.648,0
61353.338,37.109,30.273,32.227,29.297,39.062,0
61353.342,46.387,26.855,30.762,23.438,-4.883,0
61353.346,40.527,28.809,35.156,31.738,38.086,0
61353.350,27.344,31.738,43.945,47.852,84.473,0
61353.354,32.227,31.738,41.504,49.805,41.504,0
61353.358,47.363,27.344,30.273,33.203,-4.883,0
61353.362,49.805,26.367,29.297,36.621,-8.301,0
61353.365,31.738,31.738,26.367,50.293,52.734,0
61353.369,28.809,31.738,25.391,41.504,57.129,0
61353.373,48.828,29.297,27.344,30.273,49.316,0
61353.377,58.105,32.715,28.809,36.133,77.637,0
61353.381,46.875,35.645,33.691,44.434,80.566,0
61353.385,32.715,35.156,37.598,50.293,70.801,0
61353.389,43.945,31.250,34.668,41.992,67.383,0
61353.393,52.246,27.832,31.250,33.203,10.254,0
61353.397,43.457,29.785,37.109,40.527,3.418,0
61353.401,37.109,36.133,43.457,53.711,43.457,0
61353.405,43.457,34.180,41.992,52.734,6.836,0
61353.408,47.363,28.320,30.273,41.016,-6.836,0
61353.412,38.574,28.809,24.902,45.898,-1.465,0
61353.416,27.344,33.203,32.715,53.223,35.156,0
61353.420,35.156,35.156,36.621,47.363,51.270,0
61353.424,46.387,29.785,26.367,34.180,-12.207,0
61353.428,37.109,25.879,26.855,30.273,-8.789,0
61353.432,26.855,30.762,31.738,46.387,29.297,0
61353.436,25.391,35.156,29.785,49.316,39.551,0
61353.440,35.645,33.691,26.855,34.180,68.848,0
61353.444,43.457,32.715,22.461,30.273,60.547,0
61353.448,39.062,35.645,25.879,45.410,21.484,0
61353.451,31.738,39.062,37.598,50.781,20.020,0
61353.455,43.457,39.062,36.133,36.621,13.672,0
61353.459,52.246,35.645,25.391,27.832,-59.570,0
61353.463,41.992,34.180,25.391,32.715,-8.301,0
61353.467,32.227,39.551,33.691,42.480,99.121,0
61353.471,41.016,38.574,32.715,40.039,68.359,0
61353.475,51.270,36.133,27.832,27.344,-12.207,0
61353.479,43.457,37.598,27.344,31.250,9.277,0
61353.483,26.855,39.062,32.227,38.086,50.781,0
61353.487,27.832,38.574,35.156,35.156,1.953,0
61353.490,41.016,36.133,27.832,25.391,8.789,0
61353.494,41.016,37.109,27.344,21.484,28.320,0
61353.498,29.785,40.039,37.109,39.062,54.199,0
61353.502,23.438,39.551,39.062,46.387,99.121,0
61353.506,29.297,31.738,30.273,31.250,62.988,0
61353.510,34.668,32.715,25.879,23.926,-17.090,0
61353.514,28.809,38.574,33.203,40.039,0.488,0
61353.518,18.066,38.086,38.574,42.480,37.598,0
61353.522,28.320,37.109,30.273,31.250,78.613,0
61353.526,40.039,35.645,23.438,30.273,83.496,0
61353.530,28.809,31.250,28.320,34.180,34.668,0
61353.533,15.137,33.691,36.621,41.504,95.703,0
61353.537,26.367,38.574,40.039,35.645,107.910,0
61353.541,38.574,35.156,33.691,21.484,20.996,0
61353.545,26.855,27.832,25.391,27.832,22.949,0
61353.549,19.531,32.227,30.273,42.969,52.734,0
61353.553,20.996,33.691,33.691,38.574,34.180,0
61353.557,33.691,30.273,28.320,25.391,9.277,0
61353.561,39.062,31.250,22.949,24.414,26.367,2
61353.565,30.762,34.180,24.902,31.738,31.738,0
61353.569,26.855,35.645,28.320,36.133,59.082,0
61353.573,40.527,34.668,25.879,30.273,29.785,0
61353.576,50.781,33.203,28.320,24.902,29.785,0
61353.580,48.340,36.133,34.180,34.668,58.594,0
61353.584,40.039,41.016,34.668,47.363,11.719,0
61353.588,39.551,37.598,26.367,39.062,-21.484,0
61353.592,43.945,29.297,20.508,30.762,-22.949,0
61353.596,34.180,27.344,27.344,35.645,-67.871,0
61353.600,16.602,30.762,35.156,38.086,-48.340,0
61353.604,13.184,30.273,33.691,35.156,57.617,0
61353.608,25.391,32.227,29.297,25.879,53.711,0
61353.612,30.273,31.250,27.832,27.344,2.441,0
61353.615,20.508,31.738,29.785,38.574,41.992,0
61353.619,19.043,34.668,36.133,43.457,29.297,0
61353.623,30.273,33.203,34.180,33.203,4.395,0
61353.627,37.598,30.762,35.645,29.297,31.738,0
61353.631,29.785,29.785,41.016,39.551,33.203,0
61353.635,24.902,34.180,41.016,41.992,35.156,0
61353.639,42.969,36.133,38.086,36.621,23.438,0
61353.643,47.852,30.762,34.668,33.691,68.848,0
61353.647,37.109,32.227,35.645,41.992,72.754,0
61353.651,26.367,38.086,37.598,46.875,26.367,0
61353.655,34.668,35.645,35.645,44.434,62.988,0
61353.658,51.270,29.297,29.785,34.180,72.754,0
61353.662,40.039,27.832,30.273,35.645,39.551,0
61353.666,17.578,33.691,36.621,45.898,49.316,0
61353.670,21.484,33.203,34.180,40.527,39.551,0
61353.674,31.738,28.320,22.949,30.762,-35.645,0
61353.678,27.344,30.762,22.949,25.879,-36.133,0
61353.682,17.578,30.273,31.738,27.344,-11.230,0
61353.686,20.996,27.344,34.668,40.527,29.297,0
61353.690,30.273,25.391,28.809,31.250,-2.441,0
61353.694,30.273,24.902,27.344,22.949,-23.926,0
61353.698,26.367,31.250,36.133,38.574,30.273,0
61353.701,20.020,30.762,39.551,40.039,57.617,0
61353.705,27.344,28.320,34.180,31.250,41.504,0
61353.709,38.574,29.297,33.691,27.832,-18.066,0
61353.713,36.133,31.250,34.180,36.133,-3.418,0
61353.717,26.367,35.156,35.645,50.781,68.359,0
61353.721,38.086,36.133,35.645,46.875,83.008,0
61353.725,51.270,33.203,30.762,41.992,55.664,0
61353.729,45.898,33.203,27.832,47.852,52.734,0
61353.733,36.133,37.598,32.715,49.805,97.656,0
61353.737,39.551,38.574,36.621,43.945,84.473,0
61353.740,54.688,31.250,28.320,29.785,-20.508,0
61353.744,54.199,31.250,21.973,30.762,-44.922,0
61353.748,44.434,38.574,28.809,45.410,8.301,0
61353.752,40.039,38.086,30.273,47.363,46.875,0
61353.756,48.340,35.645,25.391,41.016,55.664,0
61353.760,57.617,36.621,25.879,38.574,51.270,0
61353.764,51.758,38.086,29.297,43.945,21.973,0
61353.768,29.785,38.086,31.738,46.875,43.945,0
61353.772,34.668,39.551,29.785,39.551,94.727,0
61353.776,48.340,38.574,29.297,31.738,36.621,0
61353.780,40.039,36.621,32.227,36.621,47.363,0
61353.783,34.668,38.086,36.621,48.340,83.008,0
61353.787,39.062,32.715,29.785,38.086,12.695,0
61353.791,47.363,26.855,20.020,23.926,-13.184,0
61353.795,47.852,29.785,26.367,32.227,37.598,0
61353.799,37.109,35.156,34.180,42.480,-23.438,0
61353.803,38.574,38.086,30.762,39.551,-23.926,0
61353.807,46.387,34.668,31.250,34.668,59.570,0
61353.811,46.875,32.227,33.691,35.156,28.320,0
61353.815,38.574,34.180,33.691,45.410,30.762,0
61353.819,33.691,34.668,31.738,51.758,52.734,0
61353.823,45.410,31.738,26.855,41.504,37.109,0
61353.826,48.340,24.902,25.879,38.086,56.641,0
61353.830,40.527,25.879,27.344,43.945,79.590,0
61353.834,33.691,34.180,31.738,47.852,67.871,0
61353.838,50.781,35.645,31.738,39.062,37.598,0
61353.842,58.105,32.227,27.344,23.438,14.160,0
61353.846,44.434,32.715,23.438,28.320,50.293,0
61353.850,29.297,37.109,23.438,38.574,35.645,0
61353.854,27.832,34.180,32.715,36.133,35.156,0
61353.858,46.387,29.785,31.738,22.949,20.996,0
61353.862,46.387,27.344,25.391,22.949,-13.672,0
61353.865,38.574,32.715,33.203,37.109,25.879,0
61353.869,41.016,36.133,35.156,33.203,18.555,0
61353.873,46.387,28.809,32.227,17.090,-12.207,0
61353.877,41.504,25.391,32.227,13.184,8.789,0
61353.881,25.879,32.227,31.738,25.391,25.391,0
61353.885,15.625,35.645,36.133,33.691,55.176,0
61353.889,25.879,28.809,34.180,26.367,66.895,0
61353.893,40.527,25.391,25.879,20.508,5.859,0
61353.897,31.738,27.832,24.414,28.809,27.344,0
61353.901,19.043,26.367,32.227,34.180,74.219,0
61353.905,31.250,23.926,32.715,32.227,64.453,0
61353.908,37.109,21.973,30.273,27.832,38.574,0
61353.912,28.320,25.391,36.621,31.738,40.039,0
61353.916,13.672,30.273,35.645,38.086,78.613,0
61353.920,18.555,28.809,30.273,32.227,53.711,0
61353.924,38.574,27.344,30.762,24.902,13.184,0
61353.928,36.621,28.320,32.715,27.344,57.617,0
61353.932,23.438,34.180,36.621,31.250,67.871,0
61353.936,24.414,38.086,39.062,26.367,93.262,0
61353.940,40.527,33.691,34.180,19.043,44.434,0
61353.944,43.457,28.809,24.902,18.066,-28.809,0
61353.948,25.879,32.715,29.785,27.832,41.504,0
61353.951,14.160,33.203,37.598,39.062,72.266,0
61353.955,20.996,27.344,33.691,33.203,17.090,0
61353.959,35.645,24.414,27.832,24.902,-29.785,0
61353.963,36.621,25.391,28.320,29.297,7.812,0
61353.967,21.973,27.832,35.645,35.645,44.922,0
61353.971,27.344,29.297,37.598,33.203,58.105,0
61353.975,37.109,27.344,32.715,24.414,13.672,0
61353.979,31.250,25.879,29.297,19.531,16.113,0
61353.983,24.414,29.297,28.809,37.598,39.062,0
61353.987,24.414,31.250,29.297,42.969,2.930,0
61353.990,36.133,28.320,27.832,29.785,-8.789,0
61353.994,37.598,26.855,21.973,30.273,30.762,0
61353.998,27.344,33.691,29.785,38.086,53.711,0
61354.002,24.414,35.645,37.109,38.086,25.391,0
61354.006,35.645,31.250,30.273,27.832,37.598,0
61354.010,42.480,30.273,28.320,25.391,15.625,0
61354.014,30.273,35.156,34.668,41.504,4.395,0
61354.018,14.648,37.598,40.527,42.480,20.508,0
61354.022,25.391,32.715,32.227,25.391,19.531,0
61354.026,38.574,27.344,23.926,21.973,52.246,0
61354.030,35.156,26.855,23.438,31.738,78.613,0
61354.033,22.949,31.738,26.367,42.969,46.875,0
61354.037,27.832,33.203,28.809,37.598,-6.348,0
61354.041,41.992,29.297,20.020,20.508,-35.645,0
61354.045,36.133,28.809,16.602,21.484,8.301,0
61354.049,24.414,36.133,24.414,32.715,33.691,0
61354.053,26.855,36.621,28.809,35.645,13.672,0
61354.057,36.133,33.203,27.344,29.785,10.254,0
61354.061,37.109,33.691,26.367,27.344,-12.207,0
61354.065,30.273,37.109,25.879,34.180,33.691,0
61354.069,32.715,39.062,23.926,41.992,24.414,0
61354.073,42.969,32.715,26.855,31.738,25.879,0
61354.076,40.527,32.715,36.621,21.484,44.922,0
61354.080,35.645,39.551,37.109,29.297,21.973,0
61354.084,27.344,37.598,31.738,36.621,25.391,0
61354.088,25.391,34.180,29.785,30.273,60.547,0
61354.092,32.715,32.227,30.762,25.391,67.871,0
61354.096,24.902,30.273,31.738,29.297,75.684,0
61354.100,9.277,34.668,34.668,32.715,72.754,0
61354.104,19.043,35.645,38.574,31.738,28.809,0
61354.108,31.250,31.250,28.809,19.043,12.695,0
61354.112,23.438,28.809,17.578,10.742,16.113,0
61354.115,10.742,32.715,23.438,22.949,5.859,0
61354.119,13.184,35.645,32.227,24.902,-11.230,0
61354.123,36.133,32.715,35.645,20.508,-61.035,0
61354.127,44.434,32.715,33.691,22.461,-31.250,0
61354.131,29.785,35.156,31.738,26.855,13.184,0
61354.135,20.020,35.156,37.109,34.180,20.996,0
61354.139,26.367,32.715,31.250,24.902,17.090,0
61354.143,29.297,29.785,24.902,16.602,1.953,0
61354.147,20.508,29.297,24.902,24.902,6.348,0
61354.151,12.695,34.180,30.273,35.156,44.922,0
61354.155,20.020,36.133,32.227,32.715,50.781,0
61354.158,30.762,30.273,19.043,18.066,34.180,0
61354.162,27.832,27.832,20.996,20.020,42.969,0
61354.166,14.160,33.203,37.109,35.645,83.496,0
61354.170,20.996,31.250,38.086,32.227,29.297,0
61354.174,39.551,27.344,31.738,21.484,-24.414,0
61354.178,42.480,29.785,31.250,24.414,-42.480,0
61354.182,27.832,35.156,32.227,34.668,-14.648,0
61354.186,24.902,34.180,34.180,35.156,46.387,0
61354.190,34.180,28.320,31.738,25.879,20.508,1
61354.194,31.738,28.320,19.531,25.391,22.461,0
61354.198,19.043,28.320,21.973,35.156,37.598,0
61354.201,12.695,29.297,37.598,41.504,49.805,0
61354.205,26.367,27.832,34.668,31.738,40.039,0
61354.209,33.691,25.391,29.785,25.391,-45.410,0
61354.213,30.762,31.250,32.715,33.691,-38.086,0
61354.217,21.973,38.086,39.062,44.434,7.812,0
61354.221,27.832,34.180,32.715,31.250,-6.348,0
61354.225,41.016,26.367,23.438,22.949,-33.691,0
61354.229,38.086,27.344,25.879,26.855,-32.227,0
61354.233,27.832,31.250,29.297,35.645,55.664,0
61354.237,31.250,33.691,29.785,40.039,73.730,0
61354.240,45.898,34.180,25.391,26.367,66.406,0
61354.244,46.875,35.156,24.414,25.879,37.598,0
61354.248,28.809,36.133,30.273,34.180,20.996,0
61354.252,22.461,35.156,31.738,32.715,47.852,0
61354.256,39.062,30.762,27.344,28.320,34.180,0
61354.260,44.922,24.902,30.762,21.973,56.152,0
61354.264,32.227,26.367,29.297,25.391,43.945,0
61354.268,25.879,35.156,24.414,39.062,39.551,0
61354.272,36.621,32.715,26.855,37.598,19.531,0
61354.276,42.480,25.879,24.902,26.855,-21.484,0
61354.280,36.621,27.832,24.902,22.461,41.992,0
61354.283,33.203,32.227,31.250,30.273,111.816,0
61354.287,36.621,31.250,31.250,27.832,103.027,0
61354.291,30.762,24.902,28.320,17.090,61.035,0
61354.295,21.973,28.809,31.738,25.879,36.621,0
61354.299,16.602,32.715,34.180,39.551,30.273,0
61354.303,22.949,31.250,33.203,37.109,81.055,0
61354.307,36.133,28.320,26.855,23.438,86.914,0
61354.311,36.621,26.367,25.879,22.461,42.969,0
61354.315,24.902,31.738,32.227,40.039,29.297,0
61354.319,25.391,34.668,39.551,48.828,23.926,0
61354.323,41.504,31.250,33.691,36.621,0.488,0
61354.326,44.434,30.273,22.949,30.762,25.391,0
61354.330,34.180,32.227,19.043,37.598,80.078,0
61354.334,24.902,37.109,22.949,42.480,53.223,0
61354.338,37.598,34.180,28.809,31.250,21.484,0
61354.342,49.316,29.785,26.855,25.391,69.824,0
61354.346,44.434,33.203,29.297,33.691,23.438,0
61354.350,30.273,35.645,36.621,43.457,19.531,0
61354.354,37.109,36.133,34.180,44.434,77.148,0
61354.358,54.199,38.574,31.738,33.691,106.445,0
61354.362,47.363,35.156,30.273,32.715,97.168,0
61354.365,28.809,31.250,29.297,47.852,86.914,0
61354.369,28.320,33.203,32.715,43.945,99.121,0
61354.373,40.527,28.809,27.832,31.738,44.922,0
61354.377,45.898,27.832,25.391,40.527,18.555,0
61354.381,37.598,31.738,27.832,51.758,50.781,0
61354.385,29.785,31.738,28.320,50.781,1.465,0
61354.389,38.574,27.832,25.879,40.039,-21.973,0
61354.393,47.852,24.902,23.438,35.156,35.645,0
61354.397,33.203,31.250,29.297,42.480,2.930,0
61354.401,18.555,33.691,34.668,45.410,-48.340,0
61354.405,37.109,29.297,31.738,37.109,27.832,0
61354.408,49.316,28.809,26.367,31.250,47.363,0
61354.412,43.945,29.785,26.367,39.551,8.301,0
61354.416,34.668,33.691,33.203,46.875,-11.719,0
61354.420,41.016,36.621,32.715,41.016,10.254,0
61354.424,59.082,34.668,32.715,37.109,38.574,0
61354.428,58.105,34.668,33.691,44.434,40.039,0
61354.432,42.480,39.062,34.668,57.129,9.277,0
61354.436,32.715,39.551,33.691,58.594,17.090,0
61354.440,40.039,34.668,26.367,46.875,24.902,0
61354.444,45.898,33.203,21.973,45.898,55.664,0
61354.448,36.621,36.621,26.855,54.199,90.332,0
61354.451,24.414,39.062,33.203,54.199,58.105,0
61354.455,40.527,33.691,31.250,44.434,24.414,0
61354.459,55.664,28.809,24.902,35.156,2.930,0
61354.463,43.945,31.250,28.320,38.574,3.418,0
61354.467,23.926,35.645,33.691,44.434,-12.207,0
61354.471,26.855,34.180,30.273,35.645,32.715,0
61354.475,41.504,28.320,23.926,24.902,10.742,0
61354.479,41.504,28.320,21.484,33.203,-20.508,0
61354.483,25.391,32.227,32.227,48.340,28.809,0
61354.487,24.902,33.691,35.156,42.480,73.242,0
61354.490,47.363,30.273,26.367,33.203,34.668,0
61354.494,42.969,32.227,27.344,39.062,43.945,0
61354.498,33.691,40.527,36.133,51.758,44.434,0
61354.502,35.645,38.574,35.645,54.199,-19.531,0
61354.506,43.457,32.715,25.879,36.621,-0.488,0
61354.510,47.852,32.227,26.855,29.785,-2.930,0
61354.514,30.273,36.133,34.180,40.039,9.277,0
61354.518,27.344,39.551,34.668,42.969,27.832,0
61354.522,44.922,37.598,29.785,39.062,38.574,0
61354.526,48.340,36.621,30.273,35.156,31.738,0
61354.530,38.574,38.086,35.156,42.969,10.742,0
61354.533,27.832,40.527,37.598,51.758,19.043,0
61354.537,34.668,41.504,35.645,44.434,23.438,0
61354.541,49.805,36.621,30.273,29.785,-2.441,0
61354.545,48.828,34.180,31.738,38.086,-11.719,0
61354.549,32.715,37.598,35.645,49.316,24.414,0
61354.553,26.855,35.645,34.180,39.062,47.363,0
61354.557,41.992,32.715,27.832,25.879,25.879,0
61354.561,50.293,31.250,23.926,24.414,0.000,0
61354.565,38.086,33.691,35.156,33.203,-30.762,0
61354.569,34.180,35.645,40.527,40.527,-12.695,0
61354.573,44.922,29.785,35.156,30.762,43.457,0
61354.576,40.527,27.344,33.691,22.949,27.832,0
61354.580,29.785,29.297,33.691,30.762,29.297,0
61354.584,21.484,33.203,33.203,34.668,61.523,0
61354.588,32.227,34.180,33.691,24.414,20.020,0
61354.592,43.945,29.297,30.273,22.461,16.113,0
61354.596,35.156,31.738,36.621,37.109,49.805,0
61354.600,22.461,37.109,42.969,44.434,68.359,0
61354.604,32.227,34.180,28.809,35.156,58.594,0
61354.608,50.293,28.809,18.066,26.367,28.320,0
61354.612,49.805,28.809,27.832,35.156,39.551,0
61354.615,39.062,35.156,38.574,46.387,-3.906,0
61354.619,38.086,36.621,39.062,42.969,22.461,0
61354.623,42.969,30.273,31.250,30.762,49.805,0
61354.627,41.992,24.902,25.879,24.414,18.066,0
61354.631,30.762,27.832,26.855,35.645,16.113,0
61354.635,26.855,34.180,31.250,41.016,88.867,0
61354.639,44.434,29.297,32.715,30.273,78.613,0
61354.643,50.293,25.879,27.344,26.855,-9.277,0
61354.647,46.875,31.738,27.344,33.691,9.766,0
61354.651,40.527,36.133,33.691,40.527,22.461,0
61354.655,43.457,34.668,37.598,35.645,12.695,0
61354.658,55.664,33.203,32.715,24.414,39.551,0
61354.662,48.340,34.180,28.809,28.809,38.086,0
61354.666,32.715,38.086,37.109,45.898,45.898,0
61354.670,32.227,39.551,38.086,41.016,68.848,0
61354.674,43.457,37.598,33.691,25.391,46.387,0
61354.678,47.852,37.109,36.621,31.250,-6.836,0
61354.682,34.668,36.133,38.086,41.016,14.648,0
61354.686,29.785,36.621,36.621,41.016,54.199,0
61354.690,46.387,34.180,29.297,27.832,12.695,0
61354.694,51.270,33.691,28.809,22.461,21.973,0
61354.698,40.527,40.039,31.738,30.273,72.266,0
61354.701,22.461,40.039,26.855,34.180,49.316,0
61354.705,22.461,35.645,29.297,22.949,51.270,0
61354.709,31.738,32.715,32.227,19.531,62.012,0
61354.713,27.832,32.227,28.320,32.227,60.059,0
61354.717,17.578,33.203,28.809,37.109,87.891,0
61354.721,25.391,33.203,26.855,24.414,86.914,0
61354.725,38.574,30.762,23.438,17.090,45.898,2
61354.729,37.109,31.250,24.902,25.391,10.254,0
61354.733,22.949,34.180,27.344,36.621,16.113,0
61354.737,16.113,33.691,31.250,38.574,31.738,0
61354.740,29.297,29.785,22.949,25.879,40.527,0
61354.744,30.762,27.344,16.113,27.832,4.883,0
61354.748,20.020,27.832,24.414,38.574,10.742,0
61354.752,19.531,29.297,29.785,36.621,7.812,0
61354.756,36.621,26.855,27.832,22.949,-2.441,0
61354.760,44.434,26.855,28.809,20.996,17.090,0
61354.764,38.574,33.203,33.203,34.180,2.441,0
61354.768,32.227,35.645,38.574,41.016,15.137,0
61354.772,44.922,31.738,37.598,34.668,2.441,0
61354.776,57.129,28.809,32.227,29.297,-5.859,0
61354.780,43.945,28.809,31.250,38.574,19.043,0
61354.783,23.438,28.809,34.180,45.898,35.645,0
61354.787,28.809,31.738,32.715,36.621,35.645,0
61354.791,38.086,29.297,25.879,26.855,31.250,0
61354.795,32.715,28.320,31.738,31.250,22.461,0
61354.799,28.809,38.086,42.969,39.551,35.645,0
61354.803,23.926,35.156,37.109,39.062,17.578,0
61354.807,24.902,24.902,24.902,28.809,-10.742,0
61354.811,31.738,25.879,30.273,27.832,-41.992,0
61354.815,27.344,30.273,39.062,45.898,-39.551,0
61354.819,18.066,32.715,37.598,43.945,-1.465,0
61354.823,28.809,29.297,30.762,24.902,30.273,0
61354.826,39.062,24.902,30.273,30.273,21.973,0
61354.830,37.109,29.297,35.645,37.109,-4.883,0
61354.834,29.297,36.133,39.551,37.109,30.762,0
61354.838,37.598,34.668,36.621,28.320,29.785,0
61354.842,48.828,32.715,32.715,22.949,-19.043,0
61354.846,36.621,34.180,31.250,30.762,-6.836,0
61354.850,21.973,37.598,34.180,35.645,-2.930,0
61354.854,30.273,37.598,29.297,31.738,34.668,0
61354.858,38.086,34.668,20.996,20.508,64.941,0
61354.862,27.344,33.203,28.320,24.902,28.809,0
61354.865,16.113,35.645,38.574,30.273,20.020,0
61354.869,20.020,35.156,38.574,26.855,52.246,0
61354.873,30.273,27.344,27.344,19.531,69.336,0
61354.877,34.180,26.367,25.391,15.625,39.551,0
61354.881,24.414,31.250,28.320,28.809,0.488,0
61354.885,14.160,33.203,30.762,36.621,-8.301,0
61354.889,19.043,29.297,27.344,23.438,-49.805,0
61354.893,29.297,25.391,22.949,21.484,-25.391,0
61354.897,24.414,27.832,28.809,33.203,58.594,0
61354.901,18.066,29.297,31.250,35.156,39.062,0
61354.905,31.250,31.250,31.738,27.832,26.855,0
61354.908,35.156,28.809,33.691,19.531,-19.531,0
61354.912,31.738,26.367,37.109,33.691,-18.066,0
61354.916,26.367,31.250,41.992,49.805,70.312,0
61354.920,27.344,32.715,38.574,38.574,78.125,0
61354.924,38.086,30.762,33.203,30.762,28.320,0
61354.928,35.645,27.832,29.297,41.504,-20.020,0
61354.932,23.926,29.785,33.691,48.828,-45.898,0
61354.936,27.832,30.762,38.086,43.457,26.855,0
61354.940,45.898,27.344,27.344,35.645,56.641,0
61354.944,44.922,25.391,20.020,34.668,-6.348,0
61354.948,28.809,28.320,20.020,42.969,-5.859,0
61354.951,24.902,32.227,27.344,47.363,9.766,0
61354.955,39.551,32.715,34.180,37.109,18.066,0
61354.959,50.781,30.762,30.762,31.738,75.195,0
61354.963,42.480,34.180,29.785,39.062,50.293,0
61354.967,22.461,37.109,28.809,38.086,5.371,0
61354.971,27.832,31.250,25.391,33.203,28.809,0
61354.975,38.574,27.344,24.902,31.250,45.898,0
61354.979,31.250,24.902,24.902,31.738,23.438,0
61354.983,17.090,26.855,28.320,40.527,23.438,0
61354.987,21.973,25.391,29.785,38.574,45.898,0
61354.990,41.016,23.926,20.996,30.273,71.289,0
61354.994,44.922,28.809,18.555,32.715,49.316,0
61354.998,38.574,30.762,22.949,46.387,52.734,0
61355.002,36.133,32.715,23.926,51.270,116.699,0
61355.006,46.387,33.691,21.484,38.086,60.059,0
61355.010,53.223,29.785,18.555,32.227,-12.695,0
61355.014,44.434,29.785,26.855,43.945,44.434,0
61355.018,31.250,32.715,31.738,47.363,44.434,0
61355.022,42.480,31.738,20.996,31.250,-15.625,0
61355.026,48.828,27.832,19.531,29.297,-31.250,0
61355.030,29.297,27.344,29.297,38.574,11.230,0
61355.033,13.184,30.762,35.156,36.621,25.391,0
61355.037,29.297,30.762,34.180,36.133,57.129,0
61355.041,43.945,29.785,33.691,34.180,66.895,0
61355.045,36.621,30.762,32.227,35.156,15.137,0
61355.049,28.809,33.203,31.250,44.922,40.527,0
61355.053,30.762,34.180,33.691,45.898,40.527,0
61355.057,40.527,32.227,31.738,34.668,98.145,0
61355.061,41.504,30.762,27.832,28.809,97.656,0
61355.065,32.715,31.250,29.297,37.598,6.348,0
61355.069,28.320,32.227,31.738,44.434,76.660,0
61355.073,32.227,27.832,30.762,28.809,98.145,0
61355.076,29.785,23.438,26.855,20.020,60.059,0
61355.080,21.484,24.902,27.832,37.598,41.016,0
61355.084,15.137,28.809,35.645,39.062,-28.320,0
61355.088,26.367,26.367,35.156,27.832,-7.324,0
61355.092,38.086,25.391,31.738,27.344,44.434,0
61355.096,32.227,30.273,34.180,35.156,5.371,0
61355.100,23.926,33.691,36.133,44.922,16.602,0
61355.104,31.250,29.785,30.762,42.969,63.965,0
61355.108,47.363,26.855,24.414,33.203,65.430,0
61355.112,44.434,31.738,24.414,37.598,60.059,0
61355.115,30.762,37.598,30.762,46.387,52.246,0
61355.119,32.715,33.691,32.715,42.969,37.109,0
61355.123,48.828,28.320,28.809,33.691,67.871,0
61355.127,45.410,28.320,25.879,33.203,63.965,0
61355.131,23.926,30.273,29.785,45.898,33.203,0
61355.135,22.949,36.133,34.668,51.758,42.480,0
61355.139,38.086,36.133,35.156,42.969,40.527,0
61355.143,50.293,32.227,28.320,35.156,-4.883,0
61355.147,46.387,35.156,21.973,43.457,-11.230,0
61355.151,29.297,37.109,30.762,46.875,22.949,0
61355.155,30.273,33.203,35.156,40.039,9.277,0
61355.158,40.527,30.273,29.785,29.297,31.250,0
61355.162,33.691,29.785,32.227,31.738,12.695,0
61355.166,23.926,33.203,39.062,47.852,-24.902,0
61355.170,33.203,34.668,33.691,48.340,58.594,0
61355.174,48.828,33.203,28.809,36.621,22.461,0
61355.178,47.363,31.738,27.832,36.621,-1.465,0
61355.182,28.320,32.715,30.762,41.016,76.172,0
61355.186,22.461,33.203,34.180,38.574,71.289,0
61355.190,43.945,29.297,30.273,29.785,67.871,0
61355.194,45.410,30.762,27.832,31.738,57.129,0
61355.198,25.391,34.668,33.691,39.551,24.902,0
61355.201,23.438,36.133,32.715,40.039,17.090,0
61355.205,36.621,34.180,22.949,35.156,-2.441,0
61355.209,42.969,32.715,27.344,28.320,6.348,0
61355.213,32.715,35.156,38.574,37.598,54.199,0
61355.217,24.414,39.062,39.551,45.410,50.293,0
61355.221,34.180,34.668,30.273,33.691,21.484,0
61355.225,44.922,28.809,25.391,26.367,9.277,0
61355.229,40.039,30.762,29.785,31.738,43.945,0
61355.233,28.809,38.086,38.574,41.504,58.594,0
61355.237,25.879,38.574,41.504,40.527,58.594,0
61355.240,32.715,30.273,32.227,24.902,27.832,2
61355.244,37.109,30.273,28.320,24.414,-27.832,0
61355.248,29.297,33.691,36.133,41.016,10.254,0
61355.252,39.062,36.621,41.016,44.922,67.383,0
61355.256,55.176,31.250,35.645,32.227,23.926,0
61355.260,52.246,28.320,33.691,31.250,-39.062,0
61355.264,34.668,34.180,34.668,41.992,37.598,0
61355.268,20.996,34.668,33.691,47.852,79.102,0
61355.272,30.273,33.203,28.809,37.109,35.156,0
61355.276,36.133,32.227,24.414,26.367,48.340,0
61355.280,24.902,31.738,31.250,35.645,17.090,0
61355.283,13.672,34.180,38.086,45.410,53.223,0
61355.287,22.461,31.250,33.691,34.180,65.918,0
61355.291,41.504,29.297,33.203,27.344,57.617,0
61355.295,48.828,34.180,36.621,34.668,54.199,0
61355.299,35.156,32.715,35.645,38.574,-4.395,0
61355.303,31.250,27.832,31.250,37.598,-10.254,0
61355.307,45.898,25.391,28.320,32.227,26.855,0
61355.311,47.852,23.438,32.227,33.691,-14.160,0
61355.315,31.250,27.832,32.227,38.574,-1.465,0
61355.319,21.973,32.227,26.855,40.527,10.742,0
61355.323,37.109,30.762,22.949,27.832,4.395,0
61355.326,42.969,30.762,22.461,23.438,18.555,0
61355.330,38.574,33.691,25.391,36.133,12.695,0
61355.334,30.273,38.086,34.668,42.480,-8.789,0
61355.338,31.250,32.227,27.832,28.809,-37.598,0
61355.342,40.039,22.461,15.625,18.555,-13.672,0
61355.346,34.180,28.320,27.344,35.645,21.973,0
61355.350,20.996,35.156,38.086,45.410,43.945,0
61355.354,32.715,32.227,39.551,40.527,57.129,0
61355.358,50.781,26.855,34.180,30.762,24.414,0
61355.362,44.922,24.902,24.414,25.391,29.785,0
61355.365,31.738,27.832,27.344,35.645,38.574,0
61355.369,27.832,29.785,29.785,34.180,18.066,0
61355.373,37.109,27.344,24.414,23.438,5.371,0
61355.377,43.457,30.273,27.832,25.879,44.922,0
61355.381,35.645,37.109,36.133,40.039,36.621,0
61355.385,24.414,35.645,34.180,46.875,32.715,0
61355.389,30.762,30.762,27.344,34.668,26.367,0
61355.393,36.133,27.344,27.832,29.297,43.945,0
61355.397,33.691,27.832,25.879,39.551,43.945,0
61355.401,30.273,30.762,28.809,42.480,82.520,0
61355.405,33.691,28.809,26.855,32.715,113.770,0
61355.408,38.574,26.367,19.531,26.367,2.441,0
61355.412,37.109,33.203,30.273,34.668,-44.922,0
61355.416,25.879,36.133,38.086,41.992,25.879,0
61355.420,29.297,30.762,36.621,40.039,52.734,0
61355.424,42.480,28.809,29.785,27.344,24.902,0
61355.428,41.992,28.320,24.902,27.832,42.480,0
61355.432,33.203,28.320,30.273,38.086,11.230,0
61355.436,27.832,31.738,41.504,40.039,-4.883,0
61355.440,34.180,31.250,32.715,28.809,34.180,0
61355.444,36.133,26.855,20.020,23.926,29.785,0
61355.448,29.297,27.344,31.250,40.527,12.695,0
61355.451,30.762,29.297,32.227,41.016,57.617,0
61355.455,42.969,28.320,24.902,27.832,21.973,0
61355.459,45.410,23.926,23.438,23.438,-1.953,0
61355.463,33.691,25.391,24.902,32.227,42.480,0
61355.467,21.484,33.691,32.715,43.945,42.480,0
61355.471,32.227,34.180,31.250,36.133,35.645,0
61355.475,48.828,34.180,22.949,29.785,11.719,0
61355.479,47.363,35.645,21.973,30.762,15.137,0
61355.483,35.645,36.621,27.832,35.156,22.461,0
61355.487,40.039,40.039,34.668,41.016,-1.465,0
61355.490,55.176,39.062,31.738,33.203,36.621,0
61355.494,55.176,40.039,28.320,36.133,22.949,0
61355.498,41.504,42.480,40.527,48.340,7.812,0
61355.502,38.086,37.109,42.969,53.711,32.227,0
61355.506,49.316,29.785,24.902,42.480,43.945,0
61355.510,51.270,30.762,26.855,42.969,20.508,0
61355.514,39.551,33.203,38.086,53.223,6.836,0
61355.518,32.227,33.691,41.016,50.781,17.090,0
61355.522,41.992,28.809,32.227,35.645,11.230,0
61355.526,47.852,23.926,28.320,32.227,59.082,0
61355.530,42.969,30.762,28.320,44.434,44.922,0
61355.533,32.715,36.133,30.762,50.781,8.789,0
61355.537,37.109,32.715,38.574,45.898,-0.977,0
61355.541,44.922,28.320,31.738,33.203,6.348,0
61355.545,39.551,31.738,27.344,34.180,34.668,0
61355.549,24.414,36.133,34.668,39.551,59.082,0
61355.553,26.855,33.691,38.086,36.133,85.938,0
61355.557,47.852,31.250,28.320,29.785,54.199,0
61355.561,51.758,29.785,23.438,30.762,40.527,0
61355.565,31.250,33.691,32.715,39.551,58.594,0
61355.569,24.414,37.598,40.039,37.598,25.391,0
61355.573,35.645,31.738,32.715,24.414,28.809,0
61355.576,38.086,31.738,29.785,24.414,26.367,0
61355.580,35.156,35.156,34.180,33.203,22.949,0
61355.584,27.344,34.668,38.086,49.805,42.480,0
61355.588,33.203,34.180,35.645,40.039,44.922,0
61355.592,42.480,31.738,20.996,24.902,7.812,0
61355.596,33.691,30.762,24.902,36.133,21.973,0
61355.600,17.578,33.691,39.551,44.922,102.539,0
61355.604,24.902,35.156,41.992,43.945,67.383,0
61355.608,38.086,32.227,33.691,36.133,-36.133,0
61355.612,37.109,28.809,30.273,35.156,-25.391,0
61355.615,23.926,31.738,35.645,41.016,66.406,0
61355.619,25.879,35.645,34.180,39.551,119.141,0
61355.623,50.293,32.715,30.273,33.691,67.871,0
61355.627,56.152,33.203,33.203,38.086,7.324,0
61355.631,42.969,33.203,39.062,42.969,-28.809,0
61355.635,34.180,31.250,47.363,48.828,-6.836,0
61355.639,37.598,29.297,34.668,37.109,57.129,0
61355.643,39.062,30.273,25.391,32.227,9.277,0
61355.647,34.180,35.156,38.574,46.387,24.902,0
61355.651,25.391,39.062,41.016,47.363,50.293,0
61355.655,37.109,37.598,39.551,39.062,15.137,0
61355.658,51.270,34.180,33.203,29.785,5.371,0
61355.662,39.551,30.762,27.832,33.203,-8.789,0
61355.666,18.555,29.785,34.668,48.340,78.613,0
61355.670,26.855,30.273,35.645,50.293,74.707,0
61355.674,43.457,26.855,27.344,31.738,-31.250,0
61355.678,37.598,25.879,24.902,31.250,8.789,0
61355.682,23.926,28.320,30.762,44.922,39.062,0
61355.686,24.902,28.320,35.156,44.922,32.715,0
61355.690,34.180,26.367,27.344,33.691,12.207,0
61355.694,31.738,22.461,25.879,32.715,45.898,0
61355.698,29.785,23.438,33.691,46.875,62.012,0
61355.701,24.902,27.344,28.809,46.387,-22.949,0
61355.705,34.180,26.367,30.762,35.645,4.883,0
61355.709,43.945,29.297,35.156,38.574,30.762,0
61355.713,32.715,31.250,31.738,45.898,-2.441,0
61355.717,24.902,30.762,34.668,48.340,32.227,0
61355.721,39.551,29.297,27.832,35.645,39.062,0
61355.725,48.340,26.855,20.996,23.926,35.645,0
61355.729,41.504,32.715,26.855,28.809,32.227,0
61355.733,28.320,35.645,31.250,39.551,11.719,0
61355.737,33.203,31.738,30.273,41.016,4.883,0
61355.740,48.828,31.250,27.832,34.180,-39.551,0
61355.744,41.992,32.227,29.785,33.691,-32.715,0
61355.748,29.785,36.133,39.062,47.363,-42.480,0
61355.752,31.738,35.156,30.762,51.270,-27.344,0
61355.756,44.434,31.250,19.043,42.969,62.988,0
61355.760,53.711,34.180,26.855,37.598,61.523,0
61355.764,49.805,36.621,35.156,40.039,33.691,0
61355.768,40.527,37.109,36.621,47.852,13.672,0
61355.772,52.734,36.133,34.180,36.133,-23.438,0
61355.776,55.664,33.203,31.250,26.367,-15.625,0
61355.780,40.039,34.668,26.367,42.480,-55.664,0
61355.783,31.738,36.133,32.227,50.293,-88.379,0
61355.787,39.062,31.738,30.273,35.156,7.812,0
61355.791,42.480,30.762,23.926,24.414,-2.441,0
61355.795,37.598,32.227,30.762,41.504,-0.488,0
61355.799,35.645,34.180,36.133,57.129,36.621,0
61355.803,44.434,32.715,35.645,48.340,5.371,0
61355.807,52.246,27.832,32.715,33.691,20.508,0
61355.811,44.434,22.461,22.461,33.691,17.578,0
61355.815,24.414,26.855,29.785,41.992,12.207,0
61355.819,19.531,30.762,40.527,43.457,47.852,0
61355.823,38.574,26.855,30.762,34.668,96.191,0
61355.826,41.504,24.902,23.926,32.227,78.613,0
61355.830,28.809,25.879,28.320,37.109,1.465,0
61355.834,21.973,28.320,30.762,40.039,8.789,0
61355.838,34.668,27.344,28.809,38.574,31.250,0
61355.842,49.316,23.438,30.273,31.250,-23.926,0
61355.846,39.062,23.438,26.855,34.180,-14.160,0
61355.850,21.484,27.344,26.855,44.922,25.879,0
61355.854,30.273,26.367,28.809,47.363,20.996,0
61355.858,43.457,25.391,25.879,33.203,-49.805,0
61355.862,44.434,27.344,25.879,25.391,-55.664,0
61355.865,34.668,32.227,29.297,39.551,30.762,0
61355.869,27.344,32.715,25.879,36.621,18.555,1
61355.873,33.691,27.344,20.020,16.602,2.441,0
61355.877,35.645,27.832,23.438,20.996,54.199,0
61355.881,28.320,30.273,32.715,38.574,123.535,0
61355.885,22.461,31.738,37.598,40.039,87.891,0
61355.889,36.621,32.227,32.227,31.738,38.574,0
61355.893,40.039,30.762,31.250,31.738,29.297,0
61355.897,23.926,31.250,36.133,31.738,20.020,0
61355.901,21.484,35.156,37.109,34.180,67.871,0
61355.905,41.016,36.133,38.574,34.668,44.434,0
61355.908,51.758,30.762,31.738,23.438,-34.180,0
61355.912,36.133,30.273,24.414,29.297,23.926,0
61355.916,24.414,34.668,30.273,46.875,96.680,0
61355.920,31.738,32.715,29.785,43.945,32.715,0
61355.924,39.551,27.344,24.414,32.715,32.227,0
61355.928,37.109,24.902,28.320,36.621,98.633,0
61355.932,21.484,26.367,30.273,46.875,79.590,0
61355.936,22.461,28.320,30.762,41.016,53.711,0
61355.940,37.598,22.949,31.738,23.926,29.297,0
61355.944,38.574,19.043,22.949,23.438,-8.301,0
61355.948,30.273,25.391,25.391,34.180,44.922,0
61355.951,18.555,30.762,33.691,41.016,79.102,0
61355.955,20.020,28.809,29.297,34.668,81.543,0
61355.959,29.297,26.367,25.391,23.926,26.367,0
61355.963,27.832,30.273,31.250,30.273,-48.340,0
61355.967,22.949,39.062,36.133,39.551,8.789,0
61355.971,35.156,35.645,30.762,36.133,24.902,0
61355.975,49.316,28.320,29.785,29.297,16.602,0
61355.979,38.574,30.273,27.344,33.203,29.297,0
61355.983,20.508,33.691,29.297,44.434,54.199,0
61355.987,24.414,33.203,24.414,32.715,83.496,0
61355.990,40.039,29.785,15.625,19.531,18.066,0
61355.994,33.203,28.320,22.461,26.367,34.180,0
61355.998,21.973,34.180,35.645,35.156,101.562,0
61356.002,28.809,38.086,36.133,36.133,77.637,0
61356.006,37.598,30.273,25.879,24.902,49.316,0
61356.010,43.457,28.809,24.414,28.809,-7.812,0
61356.014,36.621,35.645,32.715,44.922,-9.277,0
61356.018,25.879,37.109,36.133,42.480,-8.301,0
61356.022,40.039,30.762,30.762,30.762,45.898,0
61356.026,46.387,29.785,32.227,31.250,39.551,0
61356.030,30.762,34.668,33.203,37.109,-16.602,0
61356.033,18.555,37.598,31.738,41.016,46.875,0
61356.037,35.645,36.133,32.715,39.062,55.176,0
61356.041,51.270,30.273,20.508,28.320,20.996,0
61356.045,41.016,31.738,20.508,28.809,61.523,0
61356.049,27.344,37.109,35.645,38.574,62.988,0
61356.053,27.344,35.645,37.598,37.598,58.594,0
61356.057,38.574,27.344,28.809,27.832,26.855,0
61356.061,40.039,25.391,28.320,26.367,2.441,0
61356.065,33.203,30.273,32.227,36.133,15.625,0
61356.069,31.250,32.715,29.785,32.715,2.441,0
61356.073,36.133,26.855,21.973,22.461,-13.672,0
61356.076,37.109,25.391,21.973,26.367,2.930,0
61356.080,25.879,27.344,30.273,35.156,36.621,0
61356.084,17.090,28.809,31.738,38.086,33.203,0
61356.088,28.320,27.832,23.926,26.855,-5.859,0
61356.092,35.645,22.949,19.043,21.484,11.230,0
61356.096,28.809,24.902,26.367,31.250,45.410,0
61356.100,20.508,30.273,33.203,37.109,22.461,0
61356.104,27.832,27.832,32.227,35.645,-18.066,0
61356.108,37.598,20.020,26.367,28.320,-19.531,0
61356.112,34.180,20.508,22.949,32.715,6.348,0
61356.115,30.273,29.297,24.902,41.504,24.414,0
61356.119,36.621,30.273,26.367,39.062,40.039,0
61356.123,49.316,25.391,29.785,30.273,38.574,0
61356.127,46.875,20.508,31.250,34.180,0.488,0
61356.131,31.250,20.508,34.668,37.598,35.156,0
61356.135,22.461,27.344,38.574,41.504,26.367,0
61356.139,36.621,26.855,32.715,33.203,-13.672,0
61356.143,49.805,22.461,30.762,27.344,-29.297,0
61356.147,44.922,27.344,33.691,39.551,-1.953,0
61356.151,32.715,33.203,31.738,41.504,33.691,0
61356.155,36.621,32.227,29.297,32.715,19.531,0
61356.158,44.922,28.809,25.879,29.785,-2.930,0
61356.162,35.645,30.273,27.832,41.016,51.758,0
61356.166,17.090,33.691,30.762,46.387,39.062,0
61356.170,20.996,32.227,28.320,34.180,31.250,0
61356.174,36.133,26.855,23.438,24.414,44.922,0
61356.178,37.109,25.879,21.484,27.832,-25.391,0
61356.182,28.320,27.344,22.949,35.156,-18.555,0
61356.186,29.785,28.809,29.297,39.551,22.461,0
61356.190,41.504,28.809,28.809,27.344,39.062,0
61356.194,43.457,28.809,27.832,19.531,43.457,0
61356.198,28.809,31.738,29.297,34.180,37.598,0
61356.201,20.020,33.691,30.273,37.598,35.645,0
61356.205,27.832,33.691,26.367,25.879,62.500,0
61356.209,35.156,32.227,26.367,22.949,50.781,0
61356.213,32.227,34.180,31.738,32.715,20.996,0
61356.217,23.438,37.109,38.574,44.922,29.785,0
61356.221,28.809,35.645,37.109,41.016,41.992,0
61356.225,35.156,33.691,29.297,27.832,-23.438,0
61356.229,40.039,32.715,33.691,32.227,-62.012,0
61356.233,33.691,33.203,39.062,45.898,-1.953,0
61356.237,25.879,34.180,33.203,38.574,16.113,0
61356.240,43.457,33.203,22.949,27.344,-19.043,0
61356.244,49.805,31.738,20.508,32.715,-5.859,0
61356.248,34.668,35.156,27.832,44.922,60.547,0
61356.252,36.621,37.109,27.344,45.410,84.473,0
61356.256,49.805,32.227,25.391,31.250,0.488,0
61356.260,45.898,26.855,21.484,31.250,-13.672,0
61356.264,30.762,30.273,20.996,45.898,69.336,0
61356.268,27.344,35.156,35.645,46.387,69.336,0
61356.272,40.039,30.762,34.180,24.902,20.508,0
61356.276,50.293,32.227,28.320,21.973,-28.809,0
61356.280,42.480,36.133,32.715,29.785,-6.836,0
61356.283,30.273,34.180,35.645,36.621,95.215,0
61356.287,40.527,34.180,36.133,33.691,87.402,0
61356.291,48.828,28.320,30.273,18.555,79.102,0
61356.295,38.086,27.832,32.715,29.297,56.152,0
61356.299,20.996,34.668,37.109,37.109,11.719,0
61356.303,25.391,37.109,33.203,35.645,-2.441,0
61356.307,41.016,34.180,28.320,25.391,21.973,0
61356.311,32.227,32.227,26.367,24.414,51.270,0
61356.315,17.578,33.691,31.250,38.574,25.391,0
61356.319,16.602,33.691,28.320,37.109,39.551,0
61356.323,26.367,27.344,20.996,24.902,66.406,0
61356.326,34.668,24.902,27.832,23.926,79.590,0
61356.330,28.320,30.273,36.621,36.133,55.176,0
61356.334,23.926,37.598,43.457,42.969,-0.977,0
61356.338,47.852,38.086,38.086,38.086,25.879,0
61356.342,58.594,32.715,30.762,32.715,0.977,0
61356.346,42.480,31.250,36.133,39.551,-2.930,0
61356.350,26.855,31.738,36.133,44.434,36.621,0
61356.354,36.621,29.785,31.738,39.551,31.250,0
61356.358,48.340,27.344,28.809,28.809,42.480,0
61356.362,44.434,30.762,29.297,29.785,19.043,0
61356.365,38.086,34.180,34.180,42.969,55.664,0
61356.369,44.922,34.668,35.156,44.434,69.336,0
61356.373,56.152,32.227,26.367,33.691,14.160,0
61356.377,52.734,33.691,27.832,34.180,54.199,0
61356.381,36.621,34.668,36.133,38.574,27.832,0
61356.385,23.438,31.250,36.621,40.039,43.457,0
61356.389,37.109,30.273,35.645,34.180,69.336,0
61356.393,47.852,30.762,37.598,25.391,9.766,0
61356.397,32.227,35.645,33.203,31.250,36.133,0
61356.401,23.926,36.133,30.762,34.180,40.039,0
61356.405,32.227,29.785,28.320,23.438,58.105,0
61356.408,37.109,28.809,21.484,22.949,33.691,0
61356.412,29.785,29.785,25.879,31.250,16.602,0
61356.416,21.484,36.621,35.156,39.062,97.656,0
61356.420,34.668,38.574,37.109,35.156,62.500,0
61356.424,51.758,30.273,32.227,24.414,8.789,0
61356.428,51.758,33.691,32.227,33.203,46.387,1
61356.432,38.086,41.504,37.598,45.410,25.879,0
61356.436,30.273,38.086,36.133,41.016,18.555,0
61356.440,41.016,32.227,27.832,22.949,50.781,0
61356.444,44.922,34.668,27.832,24.414,8.789,0
61356.448,31.250,38.086,34.180,41.504,24.414,0
61356.451,19.531,39.062,39.551,43.457,47.363,0
61356.455,37.109,39.062,34.668,34.180,38.574,0
61356.459,55.664,38.574,26.855,30.273,-6.836,0
61356.463,46.387,38.574,35.156,40.527,-42.480,0
61356.467,38.086,39.551,43.457,45.410,29.785,0
61356.471,44.434,37.109,36.133,35.645,29.785,0
61356.475,52.246,32.715,28.809,27.344,-0.977,0
61356.479,56.152,33.691,29.297,34.668,64.453,0
61356.483,41.992,38.574,38.574,44.434,56.152,0
61356.487,37.598,34.668,40.527,40.039,64.453,0
61356.490,30.273,31.250,30.762,31.250,43.945,0
61356.494,25.879,28.809,31.738,36.133,64.941,0
61356.498,27.832,32.227,37.109,45.410,99.121,0
61356.502,27.832,41.504,38.574,43.945,93.750,0
61356.506,34.180,35.645,33.203,31.250,38.574,0
61356.510,29.785,30.273,27.344,26.367,-50.293,0
61356.514,20.508,31.250,34.668,38.086,8.301,0
61356.518,12.695,35.156,41.504,40.039,28.809,0
61356.522,22.949,34.668,33.203,24.902,-28.809,0
61356.526,37.109,29.785,29.785,23.438,23.926,0
61356.530,34.668,29.297,34.668,36.133,30.762,0
61356.533,25.391,35.645,37.598,46.387,22.461,0
61356.537,38.086,37.598,40.039,50.781,36.621,0
61356.541,47.363,30.273,34.180,39.062,-10.254,0
61356.545,35.645,28.809,28.809,37.598,4.395,0
61356.549,23.926,32.715,28.320,49.316,59.570,0
61356.553,25.879,30.762,32.715,42.969,61.035,0
61356.557,36.621,27.344,37.598,26.855,40.039,0
61356.561,41.504,27.344,30.762,23.926,21.973,0
61356.565,38.574,29.785,31.738,34.180,51.270,0
61356.569,46.387,33.691,36.621,42.480,98.145,0
61356.573,57.129,33.691,32.715,30.762,68.848,0
61356.576,49.805,32.715,29.785,25.391,56.641,0
61356.580,36.133,36.133,36.133,46.875,65.918,0
61356.584,26.855,40.039,42.969,51.270,56.641,0
61356.588,35.156,36.621,35.645,31.738,27.832,0
61356.592,40.527,32.715,31.738,26.367,-66.406,0
61356.596,34.668,36.621,33.691,38.086,-8.789,0
61356.600,24.414,39.062,36.133,45.898,91.309,0
61356.604,32.227,32.715,30.273,36.133,76.660,0
61356.608,43.945,30.762,22.949,29.297,15.137,0
61356.612,38.574,37.598,28.320,34.180,20.996,0
61356.615,31.738,41.016,35.645,40.527,34.180,0
61356.619,33.691,38.574,40.527,40.527,63.965,0
61356.623,39.062,32.715,37.109,20.996,90.332,0
61356.627,43.457,33.691,30.762,17.578,18.066,0
61356.631,35.645,37.109,39.551,32.715,38.086,0
61356.635,24.902,36.621,43.457,34.180,41.992,0
61356.639,35.156,34.668,33.691,22.461,22.461,0
61356.643,42.480,31.250,30.273,17.090,23.438,0
61356.647,34.180,33.203,34.180,28.320,-24.414,0
61356.651,20.996,32.715,31.738,27.344,-0.977,0
61356.655,27.344,30.762,28.809,20.020,17.578,0
61356.658,39.062,29.297,27.344,17.578,6.348,0
61356.662,35.156,27.832,27.832,23.438,-17.578,0
61356.666,21.973,32.715,36.133,36.133,13.672,0
61356.670,21.484,31.250,40.039,34.668,76.172,0
61356.674,32.715,27.832,34.668,28.320,38.086,0
61356.678,39.551,31.250,32.227,31.250,13.672,0
61356.682,36.133,37.109,35.645,43.945,40.039,0
61356.686,28.809,37.598,36.621,42.969,47.852,0
61356.690,33.691,31.738,24.902,32.227,19.531,0
61356.694,42.480,29.297,19.531,32.227,2.930,0
61356.698,33.691,31.250,31.250,42.480,12.695,0
61356.701,24.902,31.738,34.668,38.574,5.371,0
61356.705,44.434,31.738,31.250,31.250,-38.086,0
61356.709,56.152,31.250,28.809,27.344,-20.996,0
61356.713,47.852,34.180,34.180,33.203,-4.883,0
61356.717,42.969,41.504,41.504,42.969,39.551,0
61356.721,48.340,37.598,35.645,33.691,99.609,0
61356.725,43.945,28.320,26.367,20.508,35.645,0
61356.729,27.344,28.809,28.809,30.762,56.152,0
61356.733,18.555,35.645,40.527,43.457,80.078,0
61356.737,29.785,35.645,38.086,32.227,20.996,0
61356.740,47.852,31.250,27.344,20.508,3.418,0
61356.744,38.574,28.809,28.320,24.902,-9.766,0
61356.748,26.367,29.785,38.086,35.156,33.691,0
61356.752,30.273,31.738,38.086,35.645,72.754,0
61356.756,32.715,29.297,26.855,27.344,25.879,0
61356.760,33.203,26.855,25.879,22.949,16.113,0
61356.764,28.809,30.273,31.738,32.715,29.785,0
61356.768,24.414,37.109,35.645,43.945,26.855,0
61356.772,39.062,31.250,35.645,36.621,42.969,0
61356.776,43.457,22.949,31.738,28.809,62.988,0
61356.780,35.156,28.320,28.809,39.062,16.113,0
61356.783,30.762,36.621,33.691,46.875,-20.996,0
61356.787,35.156,32.227,31.250,34.180,-2.930,0
61356.791,35.156,24.414,23.926,22.461,5.859,0
61356.795,25.879,25.391,23.926,24.414,28.809,0
61356.799,15.137,33.691,27.344,22.461,78.613,0
61356.803,14.160,35.156,28.320,11.230,48.340,0
61356.807,23.438,37.109,29.785,8.789,9.277,0
61356.811,9.277,33.203,33.203,-1.465,9.277,0
61356.815,-13.672,38.086,38.086,3.906,49.805,0
61356.819,-18.555,53.711,41.016,-2.930,39.551,0
61356.823,-23.926,43.945,35.645,-45.898,-16.602,0
61356.826,-27.832,39.551,42.480,-52.734,35.156,0
61356.830,-49.316,40.527,47.363,-55.664,59.570,0
61356.834,-75.195,42.480,37.109,-67.871,58.105,0
61356.838,-65.918,47.852,33.203,-74.219,85.938,0
61356.842,-62.988,38.086,37.598,-92.773,-3.906,0
61356.846,-91.309,34.180,37.109,-94.238,-11.230,0
61356.850,-109.863,43.945,39.062,-86.426,24.902,0
61356.854,-106.934,41.992,45.898,-103.516,-19.043,0
61356.858,-98.633,35.645,43.945,-114.746,-43.945,0
61356.862,-99.121,38.574,38.574,-112.793,-13.672,0
61356.865,-115.234,41.504,43.945,-106.934,69.824,0
61356.869,-125.488,38.086,49.805,-110.840,118.652,0
61356.873,-107.422,35.156,46.875,-114.258,87.891,0
61356.877,-97.656,37.109,41.016,-109.863,30.273,0
61356.881,-96.191,42.480,37.598,-96.680,20.996,0
61356.885,-88.867,41.992,40.527,-82.520,59.570,0
61356.889,-73.242,35.645,43.457,-84.961,71.289,0
61356.893,-57.617,33.691,41.992,-78.613,-8.301,0
61356.897,-54.199,35.156,38.086,-60.059,-0.488,0
61356.901,-49.805,38.086,41.016,-41.992,52.246,0
61356.905,-21.484,36.133,38.574,-32.715,2.441,0
61356.908,0.977,32.227,28.809,-24.414,10.742,0
61356.912,1.465,32.715,32.715,-0.977,18.066,0
61356.916,0.977,35.645,42.969,19.531,-5.859,0
61356.920,19.043,33.691,40.039,20.020,-22.461,0
61356.924,38.574,26.367,30.762,19.043,-17.578,0
61356.928,42.480,26.855,28.320,31.250,10.742,0
61356.932,42.480,29.785,37.109,51.270,40.527,0
61356.936,48.340,32.227,37.109,60.059,39.062,2
61356.940,63.965,31.738,26.367,52.246,27.832,0
61356.944,70.312,25.391,23.438,51.758,34.180,0
61356.948,58.594,27.344,27.832,67.871,22.949,0
61356.951,59.082,34.668,31.738,77.148,57.617,0
61356.955,79.102,30.273,26.855,74.219,21.973,0
61356.959,88.867,23.438,22.461,74.219,-5.371,0
61356.963,82.031,29.785,16.113,82.031,12.695,0
61356.967,73.730,33.691,18.555,88.379,-6.348,0
61356.971,87.891,27.832,28.320,79.102,-6.836,0
61356.975,94.727,24.902,27.832,75.195,12.207,0
61356.979,84.961,27.344,28.320,83.496,3.418,0
61356.983,77.148,28.320,33.203,87.891,-13.672,0
61356.987,88.379,28.809,29.297,90.820,-20.996,0
61356.990,101.074,25.879,20.996,83.008,-9.277,0
61356.994,94.238,30.273,24.414,84.473,1.953,0
61356.998,84.473,38.086,35.156,99.121,-11.230,0
61357.002,83.008,34.180,30.273,89.844,4.395,0
61357.006,90.820,26.367,16.602,70.312,45.410,0
61357.010,91.797,25.391,12.695,68.848,41.504,0
61357.014,76.660,29.297,15.625,81.055,28.809,0
61357.018,70.312,33.203,21.484,82.520,38.574,0
61357.022,83.496,28.809,21.484,67.871,50.293,0
61357.026,83.496,24.902,16.113,60.547,51.270,0
61357.030,76.660,29.297,16.113,69.824,59.570,0
61357.033,68.359,31.250,22.949,81.055,82.520,0
61357.037,80.566,29.785,24.414,74.219,102.051,0
61357.041,95.215,27.832,20.996,65.430,48.340,0
61357.045,82.520,28.809,24.902,72.754,14.160,0
61357.049,71.289,35.156,31.250,83.984,53.223,0
