timestamps,TP9,AF7,AF8,TP10,Right AUX,Marker0
1528297607.954,29.785,47.363,38.086,33.203,-27.832,0
1528297607.958,8.301,42.480,37.109,32.715,-5.371,0
1528297607.962,26.855,38.574,35.156,39.062,51.758,0
1528297607.966,41.504,41.992,33.203,46.387,85.938,0
1528297607.970,18.066,50.293,31.738,39.062,42.480,0
1528297607.974,5.371,56.641,31.738,33.691,5.859,0
1528297607.978,18.066,50.781,34.180,35.645,34.668,0
1528297607.981,42.969,54.688,38.574,35.645,53.711,0
1528297607.985,27.832,65.430,38.574,44.434,39.551,0
1528297607.989,-2.441,65.430,38.086,36.133,21.973,0
1528297607.993,19.531,68.359,38.574,31.250,15.625,0
1528297607.997,52.246,72.754,34.668,44.434,76.172,0
1528297607.994,46.875,68.848,35.156,40.039,24.414,0
1528297607.998,33.203,70.312,34.180,29.785,6.836,0
1528297608.002,34.668,73.730,32.715,34.668,66.406,0
1528297608.006,55.176,73.242,36.621,50.781,63.965,0
1528297608.010,52.246,73.730,41.016,42.969,54.199,0
1528297608.014,35.645,73.730,43.945,31.738,24.414,0
1528297608.018,40.039,72.266,41.992,36.133,10.254,0
1528297608.021,66.895,75.684,38.086,39.551,63.965,0
1528297608.025,89.844,79.102,33.203,35.645,80.566,0
1528297608.029,75.684,68.359,34.668,31.250,62.988,0
1528297608.033,64.941,61.523,34.180,26.855,14.160,0
1528297608.037,66.406,74.707,27.344,27.832,10.254,0
1528297608.054,75.195,81.543,28.320,29.785,68.848,0
1528297608.058,75.195,82.031,33.691,26.367,45.410,0
1528297608.062,19.043,70.312,37.598,30.273,-12.695,0
1528297608.066,-4.395,66.406,37.109,40.039,10.254,0
1528297608.070,29.785,78.125,35.156,48.828,13.672,0
1528297608.074,18.555,76.660,33.203,40.039,13.672,0
1528297608.078,-11.719,76.660,31.250,24.414,45.898,0
1528297608.081,0.977,78.613,31.250,33.691,66.406,0
1528297608.085,45.410,78.613,33.691,51.758,70.801,0
1528297608.089,70.312,74.219,33.691,49.316,45.410,0
1528297608.093,52.246,73.242,28.320,39.551,78.613,0
1528297608.097,43.945,81.543,29.297,38.574,78.613,0
1528297608.094,81.055,86.426,33.203,46.387,69.336,0
1528297608.098,107.910,81.543,29.785,56.641,138.672,0
1528297608.102,105.957,79.102,32.227,59.082,115.234,0
1528297608.106,91.797,82.031,37.109,62.500,49.805,0
1528297608.110,104.004,82.031,37.109,73.242,94.238,0
1528297608.114,138.184,78.613,36.133,82.520,160.156,0
1528297608.118,131.348,75.684,38.574,74.219,168.457,0
1528297608.121,110.840,74.707,39.062,62.988,98.145,0
1528297608.125,104.980,70.801,34.180,57.129,80.078,0
1528297608.129,121.582,67.871,32.227,59.570,127.930,0
1528297608.133,123.535,68.359,34.668,55.176,134.277,0
1528297608.137,104.980,67.871,33.691,37.598,144.531,0
1528297608.133,92.285,68.359,30.273,34.180,158.691,0
1528297608.137,101.074,67.383,23.926,44.434,164.062,0
1528297608.141,104.004,64.941,29.297,46.387,126.953,0
1528297608.145,66.895,62.988,37.598,41.992,88.379,0
1528297608.149,25.879,59.082,37.598,38.086,102.051,0
1528297608.153,32.227,55.176,41.504,36.133,113.281,0
1528297608.157,58.105,54.199,38.574,37.598,112.793,0
1528297608.160,42.480,51.758,37.109,33.691,47.363,0
1528297608.164,21.973,47.363,37.109,32.715,13.184,0
1528297608.168,22.949,52.734,32.227,38.574,68.848,0
1528297608.172,34.180,49.805,31.250,33.691,69.336,0
1528297608.176,34.668,42.480,33.203,28.809,54.199,0
1528297608.194,22.949,46.387,35.156,32.227,65.430,0
1528297608.198,22.461,53.223,34.180,29.297,36.133,0
1528297608.202,41.992,58.105,30.762,19.043,42.969,0
1528297608.206,31.250,55.664,30.273,18.555,87.891,0
1528297608.210,0.977,47.852,28.320,21.973,90.332,0
1528297608.214,4.883,46.875,24.414,22.949,56.152,0
1528297608.218,38.086,49.805,23.438,34.180,61.035,0
1528297608.221,49.805,49.316,23.438,41.992,80.078,0
1528297608.225,34.180,46.875,25.879,28.809,83.496,0
1528297608.229,33.203,42.480,28.809,28.320,34.180,0
1528297608.233,37.598,40.527,32.715,43.945,65.918,0
1528297608.237,41.016,42.480,31.250,42.480,53.223,0
1528297608.233,42.480,41.504,24.902,32.715,-11.230,0
1528297608.237,30.273,44.434,25.391,30.273,13.672,0
1528297608.241,31.738,44.922,27.832,34.668,2.441,0
1528297608.245,56.152,41.992,28.809,38.086,27.832,0
1528297608.249,53.223,45.410,30.762,36.621,94.238,0
1528297608.253,35.645,48.828,28.809,35.645,90.820,0
1528297608.257,43.945,51.270,22.461,31.738,48.340,0
1528297608.260,58.594,55.176,27.832,41.504,75.195,0
1528297608.264,31.738,53.711,31.250,49.316,130.859,0
1528297608.268,3.906,55.664,31.250,33.691,114.746,0
1528297608.272,0.000,56.641,35.645,35.156,75.195,0
1528297608.276,22.461,55.664,36.133,51.270,56.641,0
1528297608.294,34.180,60.547,32.227,43.945,2.930,0
1528297608.298,9.277,62.500,31.250,25.391,18.555,0
1528297608.302,-0.977,60.547,30.273,31.738,32.715,0
1528297608.306,5.371,60.547,32.227,40.527,-7.324,0
1528297608.310,19.531,59.082,34.668,44.434,-5.371,0
1528297608.314,16.602,57.129,32.227,38.574,17.578,0
1528297608.318,-6.836,56.152,31.250,33.691,38.574,0
1528297608.321,-8.301,55.176,33.691,40.527,72.266,0
1528297608.325,28.809,54.688,34.180,41.504,59.570,0
1528297608.329,43.945,53.711,29.785,40.527,5.371,0
1528297608.333,22.949,54.199,28.320,30.762,6.348,0
1528297608.337,14.648,59.082,30.762,20.508,56.641,0
1528297608.332,37.598,64.453,29.785,34.180,93.262,0
1528297608.336,41.504,61.035,29.785,38.086,89.844,0
1528297608.340,23.438,51.270,35.156,30.273,50.293,0
1528297608.344,29.785,56.152,39.062,29.785,16.113,0
1528297608.348,32.715,63.965,38.086,25.879,50.781,0
1528297608.352,35.645,66.406,38.086,31.250,80.566,0
1528297608.356,29.785,66.895,41.504,32.227,48.828,0
1528297608.359,7.324,66.406,41.016,16.602,103.027,0
1528297608.363,20.508,63.965,30.273,21.973,95.703,0
1528297608.367,35.645,63.965,27.832,32.715,33.203,0
1528297608.371,18.555,63.477,38.086,29.785,60.059,0
1528297608.375,-5.859,62.012,40.527,20.508,18.555,0
1528297608.374,-12.207,65.430,39.551,24.414,-13.184,0
1528297608.378,14.648,69.336,40.039,41.504,9.277,0
1528297608.382,15.625,73.242,43.945,39.551,37.109,0
1528297608.386,-8.789,67.383,43.945,24.414,75.195,0
1528297608.390,10.254,61.035,40.039,23.926,87.402,0
1528297608.394,45.410,63.965,39.551,37.109,96.680,0
1528297608.398,52.246,67.871,40.527,36.621,87.402,0
1528297608.401,34.180,70.312,39.062,26.855,80.566,0
1528297608.405,30.273,72.754,41.504,21.973,42.969,0
1528297608.409,33.203,71.777,43.457,28.320,-3.418,0
1528297608.413,38.086,75.684,42.480,35.156,26.367,0
1528297608.417,36.621,81.055,42.969,20.996,63.965,0
1528297608.413,23.926,78.125,42.969,18.555,47.363,0
1528297608.417,18.555,75.195,39.062,26.367,37.598,0
1528297608.421,14.160,73.730,37.109,34.668,42.969,0
1528297608.425,11.719,72.266,38.574,30.762,62.500,0
1528297608.429,-4.883,58.594,39.062,19.531,33.203,0
1528297608.433,-3.418,57.129,41.992,19.531,29.785,0
1528297608.437,37.598,69.336,43.945,28.809,76.172,0
1528297608.440,35.645,73.242,44.434,30.762,28.320,0
1528297608.444,8.301,77.637,42.969,24.414,18.555,0
1528297608.448,-1.465,79.102,43.945,24.414,47.363,0
1528297608.452,17.090,75.195,43.457,23.438,57.617,0
1528297608.456,35.645,75.684,42.969,30.762,61.035,0
1528297608.473,19.531,75.684,41.016,23.438,45.898,0
1528297608.477,0.488,77.148,42.969,18.555,45.410,0
1528297608.481,19.531,84.961,44.922,30.273,-14.648,0
1528297608.485,35.156,87.891,41.504,32.227,-26.367,0
1528297608.489,12.207,80.566,35.156,23.438,-18.555,0
1528297608.493,-11.230,78.125,35.645,15.137,-46.387,0
1528297608.497,8.301,81.055,41.992,16.602,-17.578,0
1528297608.500,43.945,82.520,46.875,23.926,37.109,0
1528297608.504,39.062,83.984,48.828,12.207,47.363,0
1528297608.508,13.184,88.867,45.410,7.324,19.531,0
1528297608.512,8.301,93.262,45.898,10.742,1.953,0
1528297608.516,20.020,91.797,45.898,16.602,-8.301,0
1528297608.513,15.137,90.332,44.922,16.602,21.973,0
1528297608.517,-6.348,93.262,43.945,6.348,66.895,0
1528297608.521,-7.324,93.750,45.410,15.625,33.203,0
1528297608.525,14.648,86.914,44.922,27.344,8.789,0
1528297608.529,30.762,79.590,40.527,23.926,60.547,0
1528297608.533,16.602,80.566,40.527,15.137,-4.395,0
1528297608.537,0.977,75.684,39.551,5.859,-33.203,0
1528297608.540,20.020,69.336,35.645,12.207,-41.992,0
1528297608.544,45.410,76.660,40.039,20.020,-25.879,0
1528297608.548,22.949,84.473,42.480,9.766,18.555,0
1528297608.552,-3.418,88.379,41.016,9.766,41.992,0
1528297608.556,5.371,85.449,41.992,22.461,42.969,0
1528297608.574,29.297,87.402,41.504,33.691,34.180,0
1528297608.578,29.297,92.773,41.504,38.574,48.828,0
1528297608.582,8.789,87.891,38.086,23.438,-4.395,0
1528297608.586,11.719,80.566,33.203,8.789,21.484,0
1528297608.590,38.086,80.566,32.227,27.344,103.027,0
1528297608.594,43.457,76.660,32.227,39.062,98.633,0
1528297608.598,12.695,74.219,34.668,24.902,60.547,0
1528297608.601,6.348,74.219,36.133,10.742,62.500,0
1528297608.605,35.645,77.637,32.227,23.926,62.012,0
1528297608.609,62.012,80.078,29.785,31.738,87.891,0
1528297608.613,44.434,78.125,30.273,19.043,90.820,0
1528297608.617,17.090,75.195,26.855,10.254,44.434,0
1528297608.614,35.645,75.684,22.461,17.578,37.598,0
1528297608.618,63.477,80.566,29.785,32.227,9.766,0
1528297608.622,51.270,77.148,39.062,35.645,41.504,0
1528297608.626,38.574,73.730,34.668,26.855,78.125,0
1528297608.630,49.805,69.336,30.762,18.066,15.625,0
1528297608.634,72.266,63.477,28.809,25.391,-5.371,0
1528297608.638,70.312,64.453,27.344,29.297,24.902,0
1528297608.641,23.438,63.477,27.344,25.879,50.781,0
1528297608.645,0.488,59.570,29.785,27.832,51.758,0
1528297608.649,21.973,60.059,30.762,38.574,8.789,0
1528297608.653,36.133,59.082,29.297,38.574,71.777,0
1528297608.657,20.020,56.641,30.273,30.273,113.281,0
1528297608.653,13.672,48.340,29.297,33.203,-0.977,0
1528297608.657,44.922,41.992,26.855,33.691,36.133,0
1528297608.661,63.477,52.734,28.809,42.480,140.625,0
1528297608.665,41.504,57.617,30.273,42.969,86.914,0
1528297608.669,14.648,60.059,29.785,31.738,29.785,0
1528297608.673,15.625,62.012,31.250,30.762,25.879,0
1528297608.677,41.016,60.547,29.297,42.480,66.406,0
1528297608.680,29.785,59.570,23.926,36.133,51.758,0
1528297608.684,0.000,56.641,27.832,22.949,34.668,0
1528297608.688,5.371,54.199,30.762,21.973,37.109,0
1528297608.692,47.363,57.617,28.809,36.133,55.176,0
1528297608.696,54.199,56.152,33.203,39.062,46.875,0
1528297608.714,10.254,49.805,35.645,26.855,-8.789,0
1528297608.718,-6.836,48.340,36.621,24.414,-4.883,0
1528297608.722,28.809,50.781,39.551,36.621,34.668,0
1528297608.726,46.875,52.246,39.062,37.598,43.457,0
1528297608.730,20.508,53.223,39.551,20.020,2.441,0
1528297608.734,10.742,56.152,39.551,19.531,-28.809,0
1528297608.738,23.926,57.617,38.574,39.062,46.387,0
1528297608.741,29.297,55.176,36.133,39.062,69.824,0
1528297608.745,24.902,61.523,35.645,30.273,24.414,0
1528297608.749,10.742,61.035,37.598,28.320,3.906,0
1528297608.753,21.484,54.688,34.180,29.297,5.371,0
1528297608.757,51.758,58.105,32.227,35.156,20.020,0
1528297608.754,50.781,62.988,32.715,37.598,62.988,0
1528297608.758,22.949,66.406,31.738,28.320,82.520,0
1528297608.762,11.230,65.430,33.203,22.949,52.734,0
1528297608.766,39.551,58.105,34.180,43.457,69.824,0
1528297608.770,51.758,60.547,34.668,43.457,75.195,0
1528297608.774,10.742,66.895,34.668,28.320,57.617,0
1528297608.778,-11.719,63.477,39.062,26.367,14.160,0
1528297608.781,33.691,55.664,40.039,33.691,28.809,0
1528297608.785,78.613,62.500,36.621,47.363,63.477,0
1528297608.789,55.664,74.219,38.574,41.504,85.449,0
1528297608.793,25.879,73.242,36.621,31.250,98.145,0
1528297608.797,44.922,66.406,33.691,37.109,80.078,0
1528297608.794,79.102,55.664,41.016,44.922,26.367,0
1528297608.798,67.871,59.082,38.086,41.504,-29.297,0
1528297608.802,24.902,69.824,36.133,32.715,-1.465,0
1528297608.806,29.297,73.242,39.551,29.785,40.527,0
1528297608.810,79.102,73.242,40.039,44.434,43.457,0
1528297608.814,76.660,67.383,38.086,51.758,10.254,0
1528297608.818,39.551,67.383,38.086,35.645,37.598,0
1528297608.821,30.273,71.289,37.598,30.762,83.496,0
1528297608.825,56.152,68.848,33.691,46.387,57.617,0
1528297608.829,68.359,70.801,31.738,52.246,45.898,0
1528297608.833,33.203,70.312,30.762,33.691,34.180,0
1528297608.837,15.625,65.430,34.668,24.414,48.828,0
1528297608.854,52.246,62.988,36.133,39.062,49.805,0
1528297608.858,92.773,66.406,32.715,54.688,33.691,0
1528297608.862,75.195,70.801,33.203,47.363,52.246,0
1528297608.866,36.133,67.871,34.180,34.668,59.082,0
1528297608.870,42.969,67.383,36.133,47.852,42.480,0
1528297608.874,73.730,67.871,37.598,64.941,32.715,0
1528297608.878,62.012,66.895,38.086,53.223,49.805,0
1528297608.881,36.133,57.617,38.086,34.180,55.176,0
1528297608.885,48.828,53.711,36.621,35.645,77.148,0
1528297608.889,94.727,65.430,33.691,55.664,64.941,0
1528297608.893,110.352,70.312,31.738,63.477,25.391,0
1528297608.897,69.824,70.312,34.668,49.805,-27.832,0
1528297608.893,44.922,72.266,35.645,42.480,50.293,0
1528297608.897,69.824,72.754,33.203,54.199,125.488,0
1528297608.901,85.449,71.289,36.133,62.500,93.750,0
1528297608.905,61.523,68.848,33.691,43.457,49.805,0
1528297608.909,46.875,64.453,33.691,31.738,46.387,0
1528297608.913,65.430,64.453,41.504,49.805,61.035,0
1528297608.917,81.055,65.430,39.062,58.105,83.496,0
1528297608.920,67.871,66.406,39.551,41.504,85.449,0
1528297608.924,52.734,68.359,41.504,28.809,88.379,0
1528297608.928,47.363,67.871,39.062,38.574,60.547,0
1528297608.932,77.148,68.359,39.551,55.176,61.523,0
1528297608.936,78.125,71.777,42.480,49.805,69.824,0
1528297608.933,25.391,68.848,40.527,36.621,27.344,0
1528297608.937,16.602,59.570,37.109,31.250,44.922,0
1528297608.941,59.082,54.199,33.691,40.039,58.105,0
1528297608.945,63.477,56.641,31.738,42.969,40.527,0
1528297608.949,18.066,55.664,35.156,29.785,72.266,0
1528297608.953,-2.930,53.711,33.691,28.320,58.105,0
1528297608.957,42.969,56.641,30.762,45.410,68.359,0
1528297608.960,75.195,60.547,33.691,52.734,116.699,0
1528297608.964,39.551,63.477,31.738,34.180,56.641,0
1528297608.968,21.484,54.688,30.762,20.508,10.254,0
1528297608.972,51.758,55.664,34.668,32.227,33.203,0
1528297608.976,96.191,66.406,34.668,54.688,59.082,0
1528297609.013,73.730,65.430,34.668,53.711,57.129,0
1528297609.017,22.461,65.918,38.086,31.738,39.551,0
1528297609.021,17.578,65.430,37.109,24.902,81.055,0
1528297609.025,54.199,62.988,33.203,45.410,81.543,0
1528297609.029,58.105,64.453,30.273,46.875,36.133,0
1528297609.033,18.555,62.500,30.762,23.438,47.852,0
1528297609.037,9.766,59.082,30.273,14.648,48.828,0
1528297609.040,51.270,57.617,26.855,30.273,69.336,0
1528297609.044,66.895,58.594,26.367,40.527,129.395,0
1528297609.048,28.320,60.547,29.297,26.367,96.191,0
1528297609.052,5.371,62.012,29.297,13.672,51.758,0
1528297609.056,34.180,60.547,21.484,26.855,41.016,0
1528297609.034,63.477,60.547,26.367,44.434,66.895,0
1528297609.038,39.062,58.594,37.598,31.250,85.938,0
1528297609.042,15.137,55.664,37.109,16.113,55.176,0
1528297609.046,18.066,55.664,38.086,23.926,26.367,0
1528297609.050,50.293,57.129,38.086,37.109,37.598,0
1528297609.054,47.363,56.641,37.598,30.762,67.383,0
1528297609.058,-0.977,56.641,38.086,18.555,60.059,0
1528297609.061,-7.812,54.688,32.715,19.531,43.945,0
1528297609.065,33.691,54.688,28.320,35.645,45.898,0
1528297609.069,38.574,58.105,30.273,39.551,109.375,0
1528297609.073,0.977,52.246,30.273,18.555,138.184,0
1528297609.077,-11.719,49.805,29.785,9.277,85.449,0
1528297609.074,22.461,53.223,29.785,28.809,58.105,0
1528297609.078,55.176,56.152,31.738,40.527,42.969,0
1528297609.082,21.484,55.664,32.715,25.879,77.637,0
1528297609.086,-6.348,51.270,29.785,14.160,63.965,0
1528297609.090,26.367,50.293,27.832,26.367,52.734,0
1528297609.094,45.898,50.781,33.203,38.086,77.148,0
1528297609.098,23.438,46.875,34.668,25.879,98.633,0
1528297609.101,-6.836,38.086,29.297,18.066,93.750,0
1528297609.105,-6.348,42.969,27.344,20.996,30.762,0
1528297609.109,39.062,55.176,26.367,30.273,108.398,0
1528297609.113,50.781,60.547,25.391,29.297,146.484,0
1528297609.117,19.531,58.105,25.879,15.137,64.941,0
1528297609.134,10.254,55.176,27.832,16.113,46.875,0
1528297609.138,28.809,54.199,29.297,38.086,58.594,0
1528297609.142,29.785,57.617,27.832,41.504,77.148,0
1528297609.146,11.230,61.523,30.762,27.344,98.633,0
1528297609.150,-4.395,52.246,33.203,23.438,55.176,0
1528297609.154,16.113,37.109,26.855,34.180,28.320,0
1528297609.158,26.855,44.922,27.344,41.992,55.176,0
1528297609.161,2.930,64.453,39.062,32.227,80.078,0
1528297609.165,-7.812,63.965,37.598,21.973,-1.465,0
1528297609.169,17.090,61.523,36.621,27.832,9.277,0
1528297609.173,49.805,67.871,38.086,41.992,52.734,0
1528297609.177,31.738,69.824,34.180,34.668,17.090,0
1528297609.174,13.672,64.453,33.691,20.996,48.340,0
1528297609.178,23.926,63.477,33.203,25.879,50.781,0
1528297609.182,51.270,66.406,30.273,43.457,1.465,0
1528297609.186,53.223,60.059,28.809,41.992,-18.555,0
1528297609.190,6.836,56.641,30.762,22.461,5.371,0
1528297609.194,-2.930,57.129,32.227,23.438,-10.254,0
1528297609.198,39.551,57.617,26.855,38.086,8.301,0
1528297609.201,54.199,46.387,25.391,34.668,48.340,0
1528297609.205,36.621,45.410,30.762,23.438,24.902,0
1528297609.209,13.184,54.688,35.156,24.414,-19.531,0
1528297609.213,19.531,53.711,37.598,29.297,-5.859,0
1528297609.217,38.574,57.617,38.086,35.156,62.988,0
1528297609.214,22.949,59.570,35.156,31.250,73.242,0
1528297609.218,2.930,59.570,31.738,22.461,25.879,0
1528297609.222,12.207,56.152,33.203,28.809,50.293,0
1528297609.226,41.016,57.617,34.668,42.480,46.875,0
1528297609.230,34.668,65.430,34.668,42.969,25.391,0
1528297609.234,10.742,62.012,32.715,32.227,-29.297,0
1528297609.238,15.137,55.176,30.762,25.879,14.160,0
1528297609.241,35.156,58.594,28.320,33.691,103.027,0
1528297609.245,33.203,57.617,26.855,28.809,28.320,0
1528297609.249,17.578,52.734,26.367,20.996,9.766,0
1528297609.253,12.695,62.012,28.320,24.414,48.340,0
1528297609.257,31.250,70.801,36.621,35.156,94.727,0
1528297609.274,35.645,56.152,42.480,40.039,23.438,0
1528297609.278,11.719,37.598,41.992,28.320,-13.672,0
1528297609.282,0.000,46.875,39.062,21.484,54.199,0
1528297609.286,18.066,62.012,36.133,33.691,46.875,0
1528297609.290,49.316,63.477,32.715,40.527,4.883,0
1528297609.294,28.320,52.734,31.250,30.273,47.852,0
1528297609.298,4.883,56.641,29.785,18.555,62.988,0
1528297609.301,31.738,70.801,31.738,25.879,45.898,0
1528297609.305,57.129,68.359,30.273,45.898,29.785,0
1528297609.309,37.109,65.430,24.902,41.016,0.488,0
1528297609.313,11.719,65.918,29.785,20.996,5.371,0
1528297609.317,16.113,64.453,31.738,17.578,-21.484,0
1528297609.314,37.109,62.012,31.250,29.785,-17.090,0
1528297609.318,50.293,60.059,33.691,39.062,-8.301,0
1528297609.322,30.762,59.082,31.250,29.297,-25.879,0
1528297609.326,9.277,54.199,28.320,20.508,-19.531,0
1528297609.330,33.203,54.688,27.344,32.715,9.766,0
1528297609.334,51.758,49.805,24.902,36.133,21.484,0
1528297609.338,21.973,48.340,26.367,23.926,10.254,0
1528297609.341,9.766,57.129,30.273,20.508,-8.789,0
1528297609.345,41.992,60.547,35.156,36.621,28.809,0
1528297609.349,47.363,57.617,35.645,47.363,28.809,0
1528297609.353,15.137,57.129,32.227,31.738,6.348,0
1528297609.357,-5.859,60.547,34.668,20.020,39.062,0
1528297609.354,8.301,58.105,36.133,29.297,76.172,0
1528297609.358,39.062,52.734,31.250,45.898,108.398,0
1528297609.362,27.344,52.734,35.156,39.551,66.406,0
1528297609.366,6.348,54.199,41.504,27.832,11.719,0
1528297609.370,14.648,47.852,39.551,32.227,0.977,0
1528297609.374,40.527,47.363,37.109,38.086,25.879,0
1528297609.378,45.410,45.898,34.668,32.227,37.598,0
1528297609.381,18.555,42.969,35.645,14.160,47.363,0
1528297609.385,6.348,54.688,35.645,5.371,25.879,0
1528297609.389,45.410,62.988,32.227,25.391,14.160,0
1528297609.393,66.895,60.547,28.320,41.504,54.199,0
1528297609.397,41.016,54.688,29.297,35.645,90.820,0
1528297609.414,15.137,52.246,31.738,24.902,73.730,0
1528297609.418,31.738,51.758,29.785,29.297,46.387,0
1528297609.422,66.895,54.199,30.273,35.645,54.688,0
1528297609.426,47.363,55.176,32.227,23.438,9.277,0
1528297609.430,12.207,52.734,35.156,12.695,-14.648,0
1528297609.434,14.160,54.688,35.156,21.484,-32.715,0
1528297609.438,48.340,51.270,35.156,35.156,-48.340,0
1528297609.441,50.781,43.457,35.156,35.645,40.527,0
1528297609.445,10.742,46.875,34.180,27.344,70.801,0
1528297609.449,2.441,52.734,33.203,24.902,40.527,0
1528297609.453,50.781,53.711,31.250,43.457,32.227,0
1528297609.457,62.500,54.688,32.227,51.270,42.969,0
1528297609.454,25.391,55.664,30.762,25.879,14.160,0
1528297609.458,6.836,52.734,29.785,18.555,-1.465,0
1528297609.462,36.133,48.340,28.809,39.551,13.672,0
1528297609.466,63.477,49.805,28.320,51.758,22.461,0
1528297609.470,33.203,49.316,30.273,39.551,63.965,0
1528297609.474,-3.906,46.875,31.738,22.949,84.473,0
1528297609.478,16.602,44.922,31.250,32.227,13.184,0
1528297609.481,58.105,47.852,29.785,46.387,31.738,0
1528297609.485,44.922,47.852,28.809,34.668,61.035,0
1528297609.489,-1.465,43.457,27.832,20.020,16.113,0
1528297609.493,5.371,47.363,20.996,20.508,-13.672,0
1528297609.497,67.871,52.734,19.043,35.645,8.789,0
1528297609.494,60.547,53.711,27.832,40.527,7.324,0
1528297609.498,1.465,57.617,31.250,32.715,-31.738,0
1528297609.502,-13.672,50.781,30.762,21.484,2.441,0
1528297609.506,32.227,42.969,30.762,35.156,8.789,0
1528297609.510,52.246,54.199,31.738,48.340,1.953,0
1528297609.514,8.301,60.059,32.715,33.203,-12.207,0
1528297609.518,-17.090,59.570,36.133,23.438,-5.859,0
1528297609.521,17.578,57.617,34.180,34.180,64.941,0
1528297609.525,62.012,57.617,34.668,44.434,41.016,0
1528297609.529,37.598,60.059,36.621,28.320,25.391,0
1528297609.533,0.977,53.223,36.133,21.484,68.848,0
1528297609.537,22.949,52.246,37.109,36.621,49.316,0
1528297609.554,58.594,54.688,34.668,48.828,44.434,0
1528297609.558,41.016,53.223,33.691,35.156,59.082,0
1528297609.562,9.277,56.152,34.668,17.090,30.762,0
1528297609.566,16.113,59.570,36.133,23.926,13.184,0
1528297609.570,53.711,56.152,35.645,48.828,7.324,0
1528297609.574,48.828,50.781,38.574,50.781,-2.441,0
1528297609.578,11.230,50.781,37.109,27.832,7.812,0
1528297609.581,13.672,50.293,31.738,25.391,-1.953,0
1528297609.585,57.129,45.898,32.227,40.039,32.227,0
1528297609.589,74.707,43.457,32.715,45.410,21.973,0
1528297609.593,40.039,47.363,31.250,33.691,-23.926,0
1528297609.597,27.344,57.129,33.203,31.250,-22.949,0
1528297609.592,58.105,61.523,35.156,48.340,43.457,0
1528297609.596,76.660,47.852,36.133,62.988,67.383,0
1528297609.600,57.129,33.203,36.621,47.363,-13.672,0
1528297609.604,21.484,33.203,37.109,29.785,-57.129,0
1528297609.608,8.301,52.246,35.156,41.504,25.879,0
1528297609.612,37.109,64.941,34.180,56.152,56.152,0
1528297609.616,36.133,59.082,31.738,42.969,2.441,0
1528297609.619,14.648,57.617,31.738,30.273,-4.883,0
1528297609.623,20.020,58.594,37.109,33.203,-6.348,0
1528297609.627,47.363,54.688,38.574,34.180,17.578,0
1528297609.631,50.293,52.246,41.016,37.598,25.391,0
1528297609.635,20.020,51.758,41.504,34.180,-4.883,0
1528297609.634,17.578,52.246,35.156,32.715,-65.430,0
1528297609.638,49.805,54.688,32.715,46.875,-77.637,0
1528297609.642,52.246,55.664,33.691,55.176,-14.160,0
1528297609.646,25.879,54.688,34.668,47.852,14.648,0
1528297609.650,14.160,51.758,36.133,33.691,15.625,0
1528297609.654,27.832,51.758,31.738,45.898,74.707,0
1528297609.658,40.527,53.711,26.367,48.340,63.477,0
1528297609.661,10.742,52.246,28.320,27.832,32.227,0
1528297609.665,-0.488,55.664,30.273,17.578,38.574,0
1528297609.669,25.879,59.570,31.738,22.949,37.109,0
1528297609.673,49.805,57.617,35.645,40.527,53.223,0
1528297609.677,49.316,55.664,38.086,36.621,15.625,0
1528297609.693,13.672,55.176,40.039,31.738,9.277,0
1528297609.697,-0.488,52.734,40.527,33.691,74.707,0
1528297609.701,27.832,49.316,40.039,41.016,104.492,0
1528297609.705,35.156,50.781,37.598,39.062,50.293,0
1528297609.709,10.742,57.129,36.621,24.902,30.762,0
1528297609.713,3.418,52.246,39.062,22.461,31.250,0
1528297609.717,26.367,42.480,41.016,24.902,70.312,0
1528297609.720,38.574,50.781,36.621,32.227,121.582,0
1528297609.724,21.484,56.641,29.785,19.043,68.848,0
1528297609.728,0.977,58.594,28.320,13.672,-17.090,0
1528297609.732,1.953,54.199,32.227,17.090,-43.945,0
1528297609.736,25.391,53.223,31.738,22.949,29.785,0
1528297609.734,22.461,60.547,31.250,27.344,63.477,0
1528297609.738,0.977,57.129,33.203,13.672,17.578,0
1528297609.742,2.930,56.152,33.203,20.996,-12.695,0
1528297609.746,28.320,48.828,29.297,35.645,-21.484,0
1528297609.750,34.180,47.852,28.320,30.273,-0.977,0
1528297609.754,16.602,53.223,30.762,18.066,14.160,0
1528297609.758,7.324,49.805,32.227,17.578,26.855,0
1528297609.761,24.902,54.199,30.762,37.598,6.348,0
1528297609.765,38.574,55.176,36.621,46.875,-5.371,0
1528297609.769,17.578,58.105,39.062,25.391,32.227,0
1528297609.773,5.371,65.430,33.691,21.973,15.137,0
1528297609.777,28.320,65.918,35.156,43.945,16.113,0
1528297609.772,50.781,63.477,40.039,42.480,18.555,0
1528297609.776,33.203,66.406,38.574,31.738,-22.461,0
1528297609.780,15.137,68.359,41.016,38.574,-12.695,0
1528297609.784,35.645,66.895,45.898,43.945,-23.926,0
1528297609.788,56.641,65.430,43.457,50.293,-11.719,0
1528297609.792,41.992,58.105,42.969,45.898,45.410,1
1528297609.796,16.602,56.641,41.504,29.297,43.945,0
1528297609.799,23.438,51.270,37.598,28.320,13.184,0
1528297609.803,57.617,45.898,36.621,36.133,-7.812,0
1528297609.807,44.922,58.594,36.621,35.645,10.254,0
1528297609.811,12.207,61.523,36.621,29.785,15.137,0
1528297609.815,18.555,57.617,32.715,29.785,26.367,0
1528297609.834,47.363,53.223,32.715,38.574,-2.441,0
1528297609.838,64.941,52.246,33.203,41.992,-50.293,0
1528297609.842,39.062,55.664,30.273,33.203,-42.969,0
1528297609.846,31.250,59.570,32.715,31.250,-14.160,0
1528297609.850,61.035,59.082,36.133,42.969,-33.203,0
1528297609.854,62.500,54.199,37.598,45.410,-0.977,0
1528297609.858,23.438,48.340,39.551,34.668,25.391,0
1528297609.861,-11.230,45.898,41.016,28.809,-26.855,0
1528297609.865,-0.977,46.875,41.992,33.691,-50.293,0
1528297609.869,18.555,45.898,40.039,44.922,-13.184,0
1528297609.873,2.441,46.387,35.645,38.086,-7.324,0
1528297609.877,-11.719,49.316,37.109,30.273,20.020,0
1528297609.874,5.859,51.270,40.039,38.574,98.633,0
1528297609.878,41.016,55.176,40.039,46.387,65.430,0
1528297609.882,40.039,57.129,38.574,41.992,2.441,0
1528297609.886,5.859,41.016,35.156,29.297,-15.137,0
1528297609.890,-1.465,34.668,36.133,23.926,5.371,0
1528297609.894,25.879,54.199,36.621,31.250,45.898,0
1528297609.898,36.133,53.711,34.180,36.621,36.133,0
1528297609.901,20.996,48.828,31.250,24.902,8.789,0
1528297609.905,14.648,57.617,34.180,22.949,-13.184,0
1528297609.909,34.180,60.059,34.180,35.156,-4.883,0
1528297609.913,63.965,59.570,29.297,38.574,26.855,0
1528297609.917,48.828,57.129,33.691,30.273,7.812,0
1528297609.934,26.367,56.152,40.039,27.832,-3.906,0
1528297609.938,31.250,53.711,41.016,35.645,37.598,0
1528297609.942,52.246,54.199,41.992,38.574,79.590,0
1528297609.946,47.852,58.105,39.551,32.715,53.223,0
1528297609.950,24.902,58.594,37.598,27.832,11.230,0
1528297609.954,25.879,60.059,34.180,33.203,21.973,0
1528297609.958,41.504,60.059,32.227,38.086,20.508,0
1528297609.961,41.016,57.129,41.016,30.762,13.672,0
1528297609.965,27.344,52.734,45.410,23.438,30.762,0
1528297609.969,33.203,59.570,43.945,32.227,28.320,0
1528297609.973,48.340,68.359,39.062,44.434,24.414,0
1528297609.977,36.133,57.617,38.086,41.992,54.688,0
1528297609.974,14.648,52.734,34.180,28.809,19.531,0
1528297609.978,17.578,66.895,28.809,27.344,-4.395,0
1528297609.982,39.551,71.289,31.738,36.621,29.297,0
1528297609.986,55.664,70.312,32.227,43.945,47.852,0
1528297609.990,31.250,69.336,33.691,41.504,10.254,0
1528297609.994,4.395,64.941,38.086,34.668,-9.766,0
1528297609.998,20.996,62.012,38.086,39.551,43.457,0
1528297610.001,42.969,62.500,35.645,44.922,65.430,0
1528297610.005,33.203,62.012,37.598,37.598,47.852,0
1528297610.009,15.625,61.523,38.086,23.926,29.785,0
1528297610.013,20.508,60.059,38.574,21.973,29.297,0
1528297610.017,39.551,56.152,38.574,38.086,21.484,0
1528297610.014,56.641,58.105,37.109,41.016,43.457,0
1528297610.018,41.504,61.035,36.133,25.391,34.668,0
1528297610.022,21.484,63.477,32.715,17.578,21.973,0
1528297610.026,39.062,62.012,33.691,26.367,57.617,0
1528297610.030,48.340,58.594,35.156,29.785,58.594,0
1528297610.034,25.391,56.641,31.250,17.578,23.438,0
1528297610.038,19.043,56.641,29.297,14.160,5.859,0
1528297610.041,38.574,58.594,30.273,25.391,3.418,0
1528297610.045,41.992,54.688,32.227,31.738,6.348,0
1528297610.049,21.973,52.246,31.250,20.020,-3.906,0
1528297610.053,20.020,58.594,25.879,20.020,-11.719,0
1528297610.057,39.551,59.082,29.297,25.879,-3.906,0
1528297610.074,67.871,58.105,35.156,28.809,11.719,0
1528297610.078,56.641,59.570,33.203,26.367,41.504,0
1528297610.082,32.227,57.617,32.715,22.461,17.090,0
1528297610.086,40.527,52.734,32.227,30.762,-6.348,0
1528297610.090,53.711,51.270,28.809,41.016,21.973,0
1528297610.094,37.109,55.664,29.297,44.922,43.945,0
1528297610.098,13.672,55.664,33.203,35.645,19.531,0
1528297610.101,11.230,51.758,36.133,32.227,-3.418,0
1528297610.105,36.133,45.898,37.598,37.598,43.945,0
1528297610.109,45.410,48.340,38.086,38.574,59.570,0
1528297610.113,21.973,53.711,35.645,34.180,84.961,0
1528297610.117,3.906,50.781,35.645,35.156,88.867,0
1528297610.114,20.508,47.363,36.621,41.016,24.414,0
1528297610.118,52.246,45.410,37.109,44.922,60.547,0
1528297610.122,41.992,46.875,41.504,37.598,49.316,0
1528297610.126,9.766,52.246,41.504,38.086,17.578,0
1528297610.130,11.719,53.223,36.621,47.363,107.910,0
1528297610.134,39.551,52.246,33.691,45.898,96.680,0
1528297610.138,37.598,54.199,33.691,38.574,48.828,0
1528297610.141,33.691,53.223,33.203,28.809,22.461,0
1528297610.145,38.086,50.781,33.691,21.484,16.113,0
1528297610.149,46.875,51.758,34.180,29.785,80.566,0
1528297610.153,48.340,50.781,31.250,27.832,36.621,0
1528297610.157,29.785,49.316,29.785,20.020,-27.832,0
1528297610.154,23.438,52.246,32.227,21.973,0.000,0
1528297610.158,42.969,53.223,29.297,26.855,9.277,0
1528297610.162,50.781,53.223,23.926,26.367,0.488,0
1528297610.166,26.855,51.270,31.250,24.902,50.781,0
1528297610.170,-5.371,50.781,39.551,32.227,100.098,0
1528297610.174,8.301,54.688,40.039,39.062,36.133,0
1528297610.178,44.434,54.688,38.574,39.551,34.180,0
1528297610.181,39.062,52.246,34.668,27.832,93.750,0
1528297610.185,11.230,50.781,30.273,18.555,64.453,0
1528297610.189,20.020,52.734,32.227,20.996,-0.977,0
1528297610.193,58.105,55.664,35.645,36.621,5.859,0
1528297610.197,60.547,58.105,34.180,40.039,28.809,0
1528297610.214,49.316,58.594,32.227,30.762,19.043,0
1528297610.218,49.805,56.641,29.297,36.133,15.625,0
1528297610.222,50.293,56.152,28.320,41.504,19.043,0
1528297610.226,52.734,55.176,28.809,33.691,25.391,0
1528297610.230,28.809,55.664,29.297,25.391,53.711,0
1528297610.234,12.207,56.152,30.273,28.809,56.152,0
1528297610.238,33.691,55.176,31.738,46.875,36.621,0
1528297610.241,47.852,55.176,33.691,45.410,7.324,0
1528297610.245,29.297,55.176,30.273,28.320,30.273,0
1528297610.249,21.484,56.152,28.809,24.414,7.324,0
1528297610.253,44.922,56.152,26.855,30.273,-27.832,0
1528297610.257,74.219,58.105,23.926,33.203,-27.832,0
1528297610.252,70.312,57.617,27.832,31.738,-52.246,0
1528297610.256,27.832,59.570,31.738,30.762,-18.555,0
1528297610.260,15.625,58.594,30.762,36.133,12.695,0
1528297610.264,31.250,54.199,25.391,41.504,29.297,0
1528297610.268,24.414,53.711,19.043,36.133,56.641,0
1528297610.272,9.277,56.152,21.484,24.902,65.430,0
1528297610.276,16.113,61.035,24.414,17.578,27.344,0
1528297610.279,44.922,61.035,22.949,26.367,18.555,0
1528297610.283,65.430,58.105,21.484,34.668,54.688,0
1528297610.287,24.902,56.152,24.902,32.227,44.434,0
1528297610.291,-6.836,53.711,31.250,23.438,-0.488,0
1528297610.295,18.066,59.082,34.180,24.902,11.230,0
1528297610.294,34.668,54.688,32.715,34.180,41.016,0
1528297610.298,22.949,50.293,31.738,29.297,52.246,0
1528297610.302,17.090,61.523,32.715,23.926,12.695,0
1528297610.306,35.156,64.453,33.203,25.391,9.277,0
1528297610.310,51.270,66.406,30.762,26.367,83.496,0
1528297610.314,41.504,66.406,29.297,35.156,48.340,0
1528297610.318,11.230,64.941,30.273,26.855,7.324,0
1528297610.321,11.230,65.918,32.715,23.438,73.730,0
1528297610.325,32.227,62.500,35.645,34.668,39.062,0
1528297610.329,31.738,62.988,37.598,33.691,-12.695,0
1528297610.333,15.625,64.453,36.621,30.273,-6.836,0
1528297610.337,15.625,62.988,35.156,23.438,-22.461,0
1528297610.354,48.340,66.406,33.691,35.645,1.465,0
1528297610.358,57.129,65.430,34.180,42.969,5.371,0
1528297610.362,39.062,65.918,34.180,35.156,-9.766,0
1528297610.366,20.996,69.336,35.156,34.668,34.180,0
1528297610.370,30.273,68.359,35.645,35.645,28.809,0
1528297610.374,43.945,65.430,35.156,37.598,2.930,0
1528297610.378,22.461,62.988,36.621,29.297,32.227,0
1528297610.381,12.207,62.988,39.551,18.555,20.508,0
1528297610.385,23.926,63.477,35.156,27.344,38.086,0
1528297610.389,32.227,63.965,31.738,31.250,51.270,0
1528297610.393,43.945,63.477,34.180,21.973,31.738,0
1528297610.397,30.762,61.035,33.691,14.648,62.988,0
1528297610.394,23.438,64.453,38.574,16.602,31.738,0
1528297610.398,27.832,64.453,42.969,32.227,-5.859,0
1528297610.402,14.160,64.453,39.551,31.250,12.695,0
1528297610.406,4.883,60.059,35.645,20.508,12.207,0
1528297610.410,8.789,57.129,35.156,22.461,-30.762,0
1528297610.414,31.738,70.312,36.133,21.484,-12.207,0
1528297610.418,41.016,72.754,39.062,27.832,61.035,0
1528297610.421,15.137,72.266,36.621,24.414,86.426,0
1528297610.425,4.883,69.824,34.180,20.020,90.820,0
1528297610.429,10.742,65.918,41.992,26.855,74.219,0
1528297610.433,27.832,69.336,44.922,30.273,55.664,0
1528297610.437,31.738,71.777,40.039,24.414,15.137,0
1528297610.434,15.625,71.777,40.039,21.973,25.391,0
1528297610.438,24.902,69.336,41.992,28.809,35.156,0
1528297610.442,38.574,66.895,38.086,37.109,9.277,1
1528297610.446,33.203,67.871,37.109,34.668,37.109,0
1528297610.450,17.090,68.359,37.598,29.297,9.277,0
1528297610.454,16.602,67.383,34.668,29.785,-0.488,0
1528297610.458,44.434,67.383,34.668,31.738,47.363,0
1528297610.461,50.293,63.477,31.738,30.762,85.938,0
1528297610.465,19.043,57.617,27.832,24.414,25.879,0
1528297610.469,6.836,60.059,33.203,24.902,-35.156,0
1528297610.473,35.645,65.430,37.109,32.715,-9.766,0
1528297610.477,48.828,63.965,36.133,42.969,5.371,0
1528297610.494,31.738,62.012,36.621,39.062,5.371,0
1528297610.498,21.484,62.500,38.086,32.227,-21.484,0
1528297610.502,35.156,65.430,34.180,38.086,15.625,0
1528297610.506,58.594,62.500,30.762,42.480,83.984,0
1528297610.510,37.109,57.617,32.227,39.062,18.066,0
1528297610.514,0.977,58.105,37.109,36.621,-48.828,0
1528297610.518,2.441,62.012,37.109,32.715,-35.156,0
1528297610.521,33.691,64.941,37.109,35.156,31.250,0
1528297610.525,41.504,64.941,38.574,36.621,35.645,0
1528297610.529,19.531,62.988,37.109,29.297,-0.977,0
1528297610.533,17.090,61.523,37.598,35.156,17.578,0
1528297610.537,39.062,62.500,38.086,41.504,21.484,0
1528297610.534,42.969,65.430,36.133,36.621,-20.020,0
1528297610.538,18.555,62.012,35.645,28.809,-5.371,0
1528297610.542,17.090,51.270,37.109,26.855,50.293,0
1528297610.546,39.551,53.711,36.133,32.715,44.434,0
1528297610.550,49.805,61.523,33.691,33.203,63.965,0
1528297610.554,26.367,65.430,36.133,19.043,52.246,0
1528297610.558,0.977,67.383,39.062,20.020,58.594,0
1528297610.561,9.766,63.477,35.645,24.902,70.801,0
1528297610.565,43.457,62.012,35.645,28.809,25.879,0
1528297610.569,35.645,62.012,35.645,26.855,36.133,0
1528297610.573,9.277,62.012,38.086,18.555,12.695,0
1528297610.577,28.809,64.941,37.598,23.926,-13.184,0
1528297610.574,54.199,62.012,35.645,28.809,33.691,0
1528297610.578,42.480,52.734,39.062,33.691,66.895,0
1528297610.582,20.996,53.223,43.945,31.738,25.391,0
1528297610.586,4.395,59.082,45.410,32.715,34.180,0
1528297610.590,19.531,58.105,42.969,40.039,32.715,0
1528297610.594,33.203,54.199,44.434,38.086,5.859,0
1528297610.598,10.254,55.176,43.457,34.180,-37.109,0
1528297610.601,2.930,54.199,36.133,36.621,-60.059,0
1528297610.605,18.066,53.223,38.574,35.645,22.949,0
1528297610.609,44.922,61.035,42.969,35.156,63.965,0
1528297610.613,44.922,62.988,41.504,32.715,8.301,0
1528297610.617,36.133,60.059,42.480,30.273,31.250,0
1528297610.633,40.039,60.547,43.945,41.992,66.406,0
1528297610.637,43.457,59.570,43.945,54.688,61.035,0
1528297610.641,39.551,57.617,41.504,41.992,88.867,0
1528297610.645,28.320,61.523,41.016,28.809,61.523,0
1528297610.649,27.344,62.500,42.480,29.297,20.020,0
1528297610.653,43.457,57.129,43.457,37.109,39.551,0
1528297610.657,36.621,55.176,40.039,40.039,43.457,0
1528297610.660,17.578,55.176,35.156,20.020,20.020,0
1528297610.664,26.855,57.617,35.645,18.066,58.105,0
1528297610.668,47.852,58.594,36.133,27.832,54.199,0
1528297610.672,59.570,55.664,36.621,27.344,13.672,0
1528297610.676,34.668,51.270,35.645,23.438,-0.977,0
1528297610.677,14.648,52.246,33.691,24.902,-2.441,0
1528297610.681,15.625,54.688,35.156,33.203,11.719,0
1528297610.685,16.113,52.734,36.621,45.898,82.520,0
1528297610.689,15.137,50.293,37.109,37.598,77.148,0
1528297610.693,6.836,49.805,38.086,28.320,54.199,0
1528297610.697,10.742,49.316,36.133,30.762,56.152,0
1528297610.701,34.180,48.828,35.645,40.039,54.688,0
1528297610.704,40.039,46.387,34.668,41.016,34.668,0
1528297610.708,21.484,48.828,33.691,32.715,-4.395,0
1528297610.712,13.672,53.223,35.156,30.762,-0.977,0
1528297610.716,45.898,55.664,35.156,34.180,-32.227,0
1528297610.720,57.129,56.152,31.738,32.715,8.789,0
1528297610.714,34.180,55.176,32.715,29.297,69.336,0
1528297610.718,41.016,56.152,34.668,28.320,13.184,0
1528297610.722,44.922,50.781,32.227,34.668,-11.230,0
1528297610.726,43.457,47.363,26.855,40.527,49.805,0
1528297610.730,39.062,48.828,26.855,26.367,41.504,0
1528297610.734,17.090,48.828,29.297,21.484,-4.883,0
1528297610.738,27.344,48.828,30.273,30.762,31.738,0
1528297610.741,46.387,50.293,31.738,34.668,62.500,0
1528297610.745,25.879,50.293,29.297,36.621,62.500,0
1528297610.749,4.883,52.246,27.832,34.668,40.039,0
1528297610.753,14.160,51.270,30.762,39.062,28.809,0
1528297610.757,46.387,51.270,29.785,46.387,75.684,0
1528297610.774,44.434,52.734,27.832,42.480,47.852,0
1528297610.778,26.855,52.246,26.855,34.668,6.348,0
1528297610.782,28.320,51.270,22.461,33.203,-32.715,0
1528297610.786,42.480,52.246,26.855,34.668,4.395,0
1528297610.790,58.105,52.734,32.227,34.668,58.594,0
1528297610.794,33.691,54.199,35.156,28.320,-4.395,0
1528297610.798,17.578,56.152,36.133,30.762,-16.113,0
1528297610.801,42.969,58.594,33.203,37.109,21.973,0
1528297610.805,57.129,58.594,31.738,39.551,25.879,0
1528297610.809,47.363,54.199,35.156,37.109,23.438,0
1528297610.813,32.227,56.152,37.109,39.551,24.902,0
1528297610.817,37.109,56.641,31.250,37.109,-26.855,0
1528297610.814,60.547,54.199,32.227,38.574,-41.504,0
1528297610.818,56.152,53.223,32.715,35.156,0.977,0
1528297610.822,33.691,57.129,30.273,20.996,-10.742,0
1528297610.826,39.551,58.594,29.297,24.902,-14.160,0
1528297610.830,47.363,58.105,27.832,32.227,-11.230,0
1528297610.834,42.480,58.594,28.320,30.762,-18.066,0
1528297610.838,28.809,59.082,28.809,24.414,37.598,0
1528297610.841,20.508,58.105,29.297,24.902,22.461,0
1528297610.845,34.180,57.129,30.273,36.133,20.020,0
1528297610.849,9.766,53.223,32.715,41.992,99.121,0
1528297610.853,-9.277,43.945,30.273,31.250,53.223,0
1528297610.857,5.859,48.340,29.785,29.297,-26.367,0
1528297610.854,14.648,61.523,32.227,41.016,-17.578,0
1528297610.858,32.715,62.988,28.320,31.738,39.551,0
1528297610.862,28.809,50.781,28.809,27.832,67.871,0
1528297610.866,16.113,46.875,29.785,32.227,22.949,0
1528297610.870,26.367,58.594,22.949,25.879,36.133,0
1528297610.874,49.805,67.383,24.902,26.367,90.332,0
1528297610.878,46.875,67.871,31.738,26.855,97.656,0
1528297610.881,15.137,68.848,34.180,19.531,52.246,0
1528297610.885,9.277,66.406,35.156,16.602,43.457,0
1528297610.889,41.504,62.012,36.621,23.926,74.219,0
1528297610.893,53.223,61.035,36.621,29.785,-27.344,0
1528297610.897,35.645,59.570,36.133,20.020,-57.617,0
1528297610.914,17.090,60.059,35.156,19.043,35.645,0
1528297610.918,22.949,59.082,32.715,26.367,46.875,0
1528297610.922,24.902,56.641,32.227,17.578,13.672,0
1528297610.926,6.836,59.570,32.715,13.184,42.480,0
1528297610.930,10.742,59.570,34.180,29.785,66.895,0
1528297610.934,22.461,60.547,33.203,39.062,10.254,0
1528297610.938,34.180,61.523,32.715,33.203,30.273,0
1528297610.941,38.086,60.059,36.133,21.973,33.691,0
1528297610.945,16.113,63.965,38.574,26.367,35.645,0
1528297610.949,-8.301,61.523,40.039,30.762,-32.227,0
1528297610.953,19.531,58.594,37.109,24.902,-54.199,0
1528297610.957,17.578,55.176,36.133,24.902,19.043,0
1528297610.954,-3.906,53.711,36.133,15.137,25.879,0
1528297610.958,10.254,59.082,34.668,18.066,50.293,0
1528297610.962,26.855,61.035,36.133,26.855,27.832,0
1528297610.966,29.297,60.547,40.039,27.344,21.484,0
1528297610.970,12.207,61.523,39.551,20.508,21.973,0
1528297610.974,3.418,60.059,35.645,15.625,11.719,0
1528297610.978,25.391,59.570,35.645,24.414,12.207,0
1528297610.981,37.598,60.059,39.551,26.855,-2.930,0
1528297610.985,21.484,61.523,40.039,20.996,16.113,0
1528297610.989,6.348,62.988,37.109,22.461,43.457,0
1528297610.993,21.484,63.965,36.621,21.484,35.645,0
1528297610.997,43.457,64.941,37.598,24.414,7.324,0
1528297610.995,30.273,65.430,39.551,18.555,28.809,0
1528297610.999,22.949,66.406,38.574,13.184,83.984,0
1528297611.003,26.855,64.453,32.715,12.695,65.918,0
1528297611.007,49.805,62.500,31.738,15.625,48.828,0
1528297611.011,60.059,58.105,33.203,15.625,52.246,0
1528297611.015,32.227,54.199,33.691,4.883,23.926,0
1528297611.019,27.832,58.594,37.109,13.672,-2.930,1
1528297611.022,40.039,59.082,38.086,21.484,50.781,0
1528297611.026,43.945,57.617,35.645,20.020,88.379,0
1528297611.030,33.203,61.523,36.621,22.461,48.828,0
1528297611.034,13.184,62.988,38.574,24.414,15.137,0
1528297611.038,13.184,59.570,33.691,31.250,-12.207,0
1528297611.054,12.695,59.082,33.691,32.715,3.418,0
1528297611.058,-5.371,59.570,40.039,24.414,29.297,0
1528297611.062,-12.695,58.594,38.574,27.832,65.430,0
1528297611.066,0.977,57.617,34.180,34.668,37.109,0
1528297611.070,25.879,57.617,35.156,39.551,20.508,0
1528297611.074,20.508,57.129,36.621,29.297,70.312,0
1528297611.078,5.859,53.223,36.133,12.207,72.754,0
1528297611.081,16.602,53.223,34.180,16.602,13.184,0
1528297611.085,26.367,54.688,30.762,20.508,55.176,0
1528297611.089,35.156,56.641,35.156,18.555,51.758,0
1528297611.093,14.648,57.617,38.086,21.484,4.883,0
1528297611.097,5.859,56.641,38.086,23.438,2.441,0
1528297611.094,41.016,58.105,41.504,27.832,-32.715,0
1528297611.098,46.875,60.059,41.504,38.574,42.969,0
1528297611.102,30.273,60.059,38.574,31.738,78.613,0
1528297611.106,16.113,59.570,36.621,20.020,27.832,0
1528297611.110,28.320,61.035,33.691,24.414,-8.301,0
1528297611.114,48.828,61.035,36.133,29.297,16.113,0
1528297611.118,32.227,59.082,37.109,24.414,18.066,0
1528297611.121,14.648,61.523,33.203,23.926,-12.695,0
1528297611.125,13.672,60.059,33.203,29.297,-28.320,0
1528297611.129,33.203,62.012,35.156,32.715,20.020,0
1528297611.133,38.574,65.918,35.156,29.297,42.480,0
1528297611.137,12.207,61.035,34.180,19.531,-31.250,0
1528297611.154,4.395,58.594,34.668,24.902,-47.852,0
1528297611.158,21.484,58.594,37.598,40.527,-34.668,0
1528297611.162,23.926,59.570,37.109,43.945,6.348,0
1528297611.166,17.578,60.059,31.738,34.180,12.207,0
1528297611.170,13.672,60.059,34.180,26.367,10.254,0
1528297611.174,20.996,59.082,38.574,35.645,35.156,0
1528297611.178,35.645,61.523,38.086,40.039,43.945,0
1528297611.181,22.949,62.012,38.574,32.227,88.867,0
1528297611.185,11.719,62.012,37.598,34.180,25.391,0
1528297611.189,31.738,64.941,33.691,38.086,-3.906,0
1528297611.193,55.664,61.523,32.227,43.457,41.016,0
1528297611.197,38.086,61.035,32.227,39.551,18.066,0
1528297611.194,16.602,65.918,33.691,32.227,17.578,0
1528297611.198,28.809,66.895,30.762,34.668,41.504,0
1528297611.202,53.223,65.918,30.273,40.527,73.242,0
1528297611.206,52.734,62.988,30.762,29.785,55.664,0
1528297611.210,33.203,61.523,29.297,22.461,-0.488,0
1528297611.214,39.062,51.270,31.738,28.320,23.926,0
1528297611.218,52.734,45.898,32.227,36.133,43.945,0
1528297611.221,56.152,58.594,34.668,45.898,-1.465,0
1528297611.225,41.992,61.523,35.156,39.062,5.859,0
1528297611.229,29.785,68.359,33.203,33.203,54.688,0
1528297611.233,31.250,70.312,32.227,35.156,79.102,0
1528297611.237,39.551,67.871,36.133,34.180,75.684,0
1528297611.234,17.578,64.453,37.598,28.320,52.246,0
1528297611.238,-14.160,59.570,36.621,20.508,36.621,0
1528297611.242,3.906,59.082,34.668,30.273,73.242,0
1528297611.246,23.438,59.570,41.504,44.434,81.543,0
1528297611.250,17.578,60.059,48.828,32.715,80.566,0
1528297611.254,5.371,58.594,49.316,28.809,26.367,0
1528297611.258,14.160,59.082,48.340,36.133,-10.254,0
1528297611.261,51.758,59.082,42.969,32.227,24.902,0
1528297611.265,45.898,58.105,39.551,31.250,68.848,0
1528297611.269,10.742,55.664,39.551,25.391,82.520,0
1528297611.273,20.020,56.152,41.016,22.461,18.555,0
1528297611.277,52.246,63.477,41.992,31.250,60.547,0
1528297611.273,51.270,58.594,41.016,33.691,99.121,0
1528297611.277,32.715,49.316,39.551,29.297,58.105,0
1528297611.281,20.996,50.781,37.598,27.832,3.418,0
1528297611.285,40.039,61.523,39.062,39.551,-11.719,0
1528297611.289,60.059,67.871,40.039,43.945,30.273,0
1528297611.293,46.387,64.453,41.016,33.203,4.883,0
1528297611.297,35.645,64.453,41.992,33.691,-28.809,0
1528297611.300,38.574,54.199,39.551,37.598,27.832,0
1528297611.304,56.152,47.852,41.992,41.992,50.293,0
1528297611.308,51.758,58.594,46.875,47.363,39.551,0
1528297611.312,31.250,61.035,40.039,33.691,18.066,0
1528297611.316,30.762,62.988,38.574,32.715,15.137,0
1528297611.335,43.945,62.988,46.875,43.457,83.496,0
1528297611.339,43.457,57.617,45.898,38.574,110.840,0
1528297611.343,5.371,52.246,43.457,28.320,70.312,0
1528297611.347,-14.648,50.293,40.527,26.855,27.832,0
1528297611.351,11.719,52.246,39.551,38.086,27.344,0
1528297611.355,18.066,51.270,40.527,43.457,-23.438,0
1528297611.359,7.324,52.734,36.621,29.785,-22.949,0
1528297611.362,6.348,55.664,38.086,25.391,4.395,0
1528297611.366,23.438,55.664,42.969,36.133,-41.504,0
1528297611.370,50.293,58.105,40.039,34.668,-25.391,0
1528297611.374,39.062,54.199,35.645,16.113,-35.156,0
1528297611.378,21.484,55.664,34.668,17.090,-41.504,0
1528297611.375,30.762,60.547,35.156,31.250,32.227,0
1528297611.379,48.828,58.594,34.668,38.086,48.828,0
1528297611.383,38.086,59.082,33.691,33.691,29.297,0
1528297611.387,25.391,59.570,33.691,28.809,58.594,0
1528297611.391,18.555,60.059,35.156,27.344,21.484,0
1528297611.395,27.832,59.570,32.227,35.645,15.625,0
1528297611.399,47.363,62.012,31.738,42.480,16.113,0
1528297611.402,29.785,62.500,41.016,35.645,41.504,0
1528297611.406,2.930,57.617,40.527,35.156,92.285,0
1528297611.410,31.250,54.199,38.086,34.668,66.895,0
1528297611.414,51.270,53.711,37.598,39.062,61.035,0
1528297611.418,25.391,57.617,37.109,35.156,13.672,0
1528297611.413,9.277,61.523,41.016,34.668,-0.488,0
1528297611.417,20.996,62.500,38.086,41.504,16.602,0
1528297611.421,48.340,64.453,32.227,38.086,23.926,0
1528297611.425,41.504,65.430,32.227,34.668,98.145,0
1528297611.429,22.949,63.477,30.762,25.391,41.504,0
1528297611.433,37.598,62.500,31.250,30.762,4.883,0
1528297611.437,59.082,62.988,34.668,40.527,43.457,0
1528297611.440,53.223,61.523,34.668,31.250,98.633,0
1528297611.444,21.973,59.082,31.250,23.438,29.785,0
1528297611.448,5.371,58.594,31.250,23.926,-8.789,0
1528297611.452,31.738,58.105,31.250,30.762,52.734,0
1528297611.456,45.898,56.641,30.273,33.691,37.109,0
1528297611.474,15.137,58.594,31.738,20.996,15.625,0
1528297611.478,0.488,48.828,25.391,13.672,39.551,0
1528297611.482,27.832,44.434,25.879,28.320,81.055,0
1528297611.486,47.852,60.547,33.203,26.855,68.848,0
1528297611.490,28.320,66.895,30.273,20.996,12.207,0
1528297611.494,11.230,66.895,28.809,26.367,-6.348,0
1528297611.498,28.320,65.430,30.762,28.320,0.488,0
1528297611.501,50.293,67.383,31.738,27.344,21.973,0
1528297611.505,41.992,69.336,32.227,20.020,9.766,0
1528297611.509,7.324,60.059,32.715,17.090,-6.836,0
1528297611.513,-6.836,57.617,36.133,18.066,26.367,0
1528297611.517,9.766,60.547,34.180,22.461,24.902,0
1528297611.512,20.508,60.059,31.738,22.949,31.738,0
1528297611.516,9.766,64.941,33.203,13.184,28.320,0
1528297611.520,0.977,71.777,33.691,22.461,3.418,0
1528297611.524,19.043,71.777,33.691,27.832,-14.160,0
1528297611.528,35.156,69.336,33.203,24.902,-41.016,0
1528297611.532,22.461,68.848,34.180,22.461,-20.508,0
1528297611.536,17.090,69.824,37.109,24.902,23.926,0
1528297611.539,31.250,69.824,36.133,33.203,32.715,0
1528297611.543,40.039,65.430,35.645,25.879,44.434,0
1528297611.547,22.461,58.594,32.715,8.789,8.301,0
1528297611.551,16.602,59.570,32.715,9.277,-23.438,1
1528297611.555,32.715,61.523,33.203,26.367,50.781,0
1528297611.574,35.645,59.082,32.227,24.902,41.504,0
1528297611.578,8.301,56.641,32.715,9.277,-22.461,0
1528297611.582,-13.672,57.617,29.785,15.625,16.113,0
1528297611.586,-0.977,57.617,33.691,18.555,41.504,0
1528297611.590,31.250,55.176,36.621,22.949,76.660,0
1528297611.594,35.156,53.223,37.109,30.273,38.574,0
1528297611.598,9.277,54.688,39.062,17.578,20.020,0
1528297611.601,10.742,55.664,37.598,12.695,79.590,0
1528297611.605,43.945,56.152,32.227,33.691,80.566,0
1528297611.609,48.340,55.664,32.715,38.574,37.598,0
1528297611.613,26.367,55.176,31.738,27.344,-2.441,0
1528297611.617,15.625,57.129,29.785,29.297,-4.883,0
1528297611.614,35.156,58.105,33.203,25.879,70.801,0
1528297611.618,64.453,57.129,38.086,29.785,84.961,0
1528297611.622,44.922,54.688,40.527,35.645,3.418,0
1528297611.626,13.672,52.734,41.016,30.273,-18.066,0
1528297611.630,19.043,55.176,41.992,40.039,-10.254,0
1528297611.634,35.645,57.129,39.062,46.387,6.348,0
1528297611.638,31.250,56.152,36.133,31.250,-0.977,0
1528297611.641,21.484,57.129,38.086,18.555,15.625,0
1528297611.645,25.391,48.828,40.039,30.762,82.520,0
1528297611.649,36.133,47.363,39.551,47.363,70.312,0
1528297611.653,37.598,57.617,37.109,30.762,39.062,0
1528297611.657,18.555,62.500,37.598,18.066,67.871,0
1528297611.654,3.906,61.035,37.598,24.414,42.969,0
1528297611.658,21.484,62.012,34.668,26.855,28.809,0
1528297611.662,38.574,64.941,35.156,30.273,99.609,0
1528297611.666,21.973,58.594,35.645,30.762,75.195,0
1528297611.670,8.301,55.664,33.203,34.668,49.316,0
1528297611.674,8.789,61.523,28.809,36.621,81.543,0
1528297611.678,34.668,64.453,32.227,34.180,67.383,0
1528297611.681,32.227,64.941,38.574,29.297,-4.883,0
1528297611.685,10.254,65.918,37.598,23.926,12.695,0
1528297611.689,26.855,66.895,38.574,34.668,52.734,0
1528297611.693,65.918,70.801,38.574,48.340,51.758,0
1528297611.697,64.941,70.801,38.086,36.621,48.340,0
1528297611.715,33.691,69.824,39.062,29.297,15.625,0
1528297611.719,29.297,68.359,35.156,28.320,-13.672,0
1528297611.723,64.941,67.871,30.273,28.809,10.254,0
1528297611.727,64.453,67.383,31.738,34.180,51.270,0
1528297611.731,24.414,69.824,35.156,33.691,37.598,0
1528297611.735,29.785,70.801,37.598,33.691,1.953,0
1528297611.739,41.016,67.383,36.133,33.691,-2.930,0
1528297611.742,38.086,66.895,32.715,26.855,10.254,0
1528297611.746,14.160,68.848,30.762,23.926,19.043,0
1528297611.750,-2.441,66.406,32.227,24.902,22.461,0
1528297611.754,19.531,63.965,34.668,23.438,19.043,0
1528297611.758,31.250,63.965,33.691,31.250,49.805,0
1528297611.755,18.555,60.059,32.715,29.785,59.082,0
1528297611.759,5.371,59.570,32.227,23.438,43.945,0
1528297611.763,25.391,56.152,29.297,23.926,76.172,0
1528297611.767,37.598,49.805,30.762,31.738,69.824,0
1528297611.771,21.484,57.129,36.621,37.109,-12.695,0
1528297611.775,15.137,64.453,36.133,27.344,-5.371,0
1528297611.779,19.531,69.336,32.715,23.926,5.859,0
1528297611.782,42.480,70.312,35.645,40.039,-23.926,0
1528297611.786,63.965,71.777,37.109,41.504,38.574,0
1528297611.790,31.738,71.289,37.109,25.391,59.082,0
1528297611.794,15.625,65.918,33.691,16.113,29.785,0
1528297611.798,56.641,65.430,28.320,25.879,63.477,0
1528297611.795,64.453,64.941,31.250,33.691,62.012,0
1528297611.799,42.969,64.453,39.062,26.855,33.203,0
1528297611.803,33.203,64.453,38.086,25.879,49.805,0
1528297611.807,41.016,58.594,36.133,30.273,52.246,0
1528297611.811,58.105,58.105,32.715,33.203,33.691,0
1528297611.815,37.598,57.617,30.762,29.785,-27.344,0
1528297611.819,2.441,58.105,35.156,28.809,-18.066,0
1528297611.822,8.301,60.547,37.598,34.668,5.371,0
1528297611.826,28.320,58.105,39.062,36.133,21.973,0
1528297611.830,20.996,56.641,38.574,29.297,19.531,0
1528297611.834,2.441,55.664,34.180,25.879,-8.301,0
1528297611.838,12.695,58.594,31.738,27.832,36.133,0
1528297611.854,41.992,60.059,30.273,35.156,42.480,0
1528297611.858,41.992,58.594,30.273,39.062,69.336,0
1528297611.862,13.672,60.059,32.715,30.762,34.180,0
1528297611.866,-1.465,55.176,32.715,29.297,13.184,0
1528297611.870,13.672,51.758,31.250,33.691,49.316,0
1528297611.874,31.250,49.805,27.344,35.645,27.832,0
1528297611.878,15.137,43.945,33.203,29.785,32.715,0
1528297611.881,8.789,53.223,42.480,22.461,85.449,0
1528297611.885,29.297,62.500,38.574,31.250,15.137,0
1528297611.889,39.551,62.012,30.273,31.738,-47.363,0
1528297611.893,34.668,59.570,32.227,23.438,-8.301,0
1528297611.897,19.043,63.965,36.621,16.113,31.738,0
1528297611.894,26.367,67.871,36.133,19.531,42.969,0
1528297611.898,48.340,63.477,34.668,35.156,-24.902,0
1528297611.902,48.828,62.012,34.668,33.691,-2.930,0
1528297611.906,30.273,62.012,35.156,19.531,45.410,0
1528297611.910,24.414,58.594,36.133,19.531,70.801,0
1528297611.914,28.809,58.594,32.715,24.902,-1.465,0
1528297611.918,37.109,62.012,30.762,30.273,-36.621,0
1528297611.921,22.461,64.453,31.738,38.086,69.824,0
1528297611.925,8.301,63.965,30.273,28.320,15.137,0
1528297611.929,18.555,63.965,32.715,30.762,-53.711,0
1528297611.933,29.297,62.988,36.621,35.645,71.289,0
1528297611.937,24.902,62.500,38.574,29.297,73.730,0
1528297611.933,1.465,62.988,38.574,26.855,0.000,0
1528297611.937,-8.789,60.059,32.227,33.691,9.766,0
1528297611.941,9.277,56.641,31.250,37.598,14.160,0
1528297611.945,24.414,58.594,41.992,33.691,58.594,0
1528297611.949,21.484,62.012,46.875,30.762,30.762,0
1528297611.953,14.648,62.988,45.898,36.621,-35.156,0
1528297611.957,38.574,64.453,49.805,41.992,18.555,0
1528297611.960,42.969,64.941,49.316,38.574,54.199,0
1528297611.964,17.090,61.035,40.527,24.414,29.297,0
1528297611.968,27.832,61.523,41.016,25.391,1.953,0
1528297611.972,51.270,67.383,41.504,39.551,3.906,0
1528297611.976,61.523,61.035,41.016,37.598,41.504,0
1528297611.994,38.086,53.711,41.504,26.367,22.949,0
1528297611.998,16.602,65.430,42.969,22.949,14.648,0
1528297612.002,46.387,73.730,39.551,32.227,29.297,0
1528297612.006,65.918,72.754,37.109,37.598,52.734,0
1528297612.010,50.781,73.730,38.574,31.250,83.984,0
1528297612.014,29.785,67.383,41.992,30.273,64.453,0
1528297612.018,24.414,65.430,42.969,39.551,56.641,0
1528297612.021,56.641,66.406,37.598,42.480,1.465,0
1528297612.025,57.617,65.918,38.086,36.621,-16.113,0
1528297612.029,27.344,64.453,39.551,31.250,11.719,0
1528297612.033,24.902,63.965,37.598,32.227,57.129,0
1528297612.037,25.391,64.941,39.062,41.016,91.309,0
1528297612.035,33.203,63.477,40.527,32.715,11.230,0
1528297612.039,20.996,62.012,40.527,18.555,-25.879,0
1528297612.043,-5.371,63.477,40.527,24.414,32.227,0
1528297612.047,11.230,61.523,43.457,38.086,90.820,0
1528297612.051,29.297,57.617,42.969,43.457,72.266,0
1528297612.055,19.043,61.523,40.039,28.320,-17.090,0
1528297612.059,4.395,64.453,39.551,17.578,-12.207,0
1528297612.062,22.461,67.383,39.551,25.879,58.594,0
1528297612.066,44.922,67.383,37.109,30.273,60.059,0
1528297612.070,28.320,64.453,40.039,21.484,20.020,0
1528297612.074,20.508,65.430,41.016,12.695,18.066,0
1528297612.078,33.691,66.406,41.504,15.625,22.461,0
1528297612.074,48.340,67.871,47.363,30.762,72.754,0
1528297612.078,46.875,66.895,47.363,36.133,64.941,0
1528297612.082,25.879,67.383,39.062,21.484,-2.441,0
1528297612.086,28.809,70.801,37.109,20.020,38.086,0
1528297612.090,54.688,72.266,39.062,29.785,56.641,0
1528297612.094,44.434,65.918,40.039,33.203,40.039,0
1528297612.098,15.137,65.430,40.527,20.508,79.102,0
1528297612.101,13.672,67.383,38.574,16.602,18.066,0
1528297612.105,28.320,67.871,39.062,30.762,-3.418,0
1528297612.109,37.109,70.312,41.016,36.133,51.270,0
1528297612.113,22.461,70.801,41.992,34.180,21.484,0
1528297612.117,9.277,72.266,41.992,24.902,7.324,0
1528297612.134,15.137,69.824,40.527,32.715,12.207,0
1528297612.138,32.715,66.895,40.039,35.156,36.621,0
1528297612.142,35.645,68.848,39.062,24.414,70.312,0
1528297612.146,15.625,67.871,38.574,25.391,49.805,0
1528297612.150,13.672,66.406,39.062,28.809,23.926,1
1528297612.154,42.969,66.406,37.598,36.133,25.391,0
1528297612.158,33.691,64.453,40.039,34.668,50.781,0
1528297612.161,5.859,62.988,41.992,26.367,29.297,0
1528297612.165,12.207,65.918,40.039,33.691,-0.977,0
1528297612.169,34.668,65.430,40.039,39.551,43.457,0
1528297612.173,49.316,66.406,41.016,40.039,18.066,0
1528297612.177,41.504,69.824,38.086,36.621,-10.254,0
1528297612.172,33.203,70.312,30.762,33.203,21.484,0
1528297612.176,40.039,67.871,35.156,30.762,2.930,0
1528297612.180,53.711,64.941,39.062,30.762,39.062,0
1528297612.184,47.363,64.941,38.086,30.762,34.180,0
1528297612.188,33.203,65.430,40.039,34.668,-20.996,0
1528297612.192,28.320,64.941,36.133,32.715,0.488,0
1528297612.196,35.156,63.965,36.621,34.180,41.504,0
1528297612.199,31.250,60.547,42.480,42.480,54.688,0
1528297612.203,23.438,62.988,42.969,43.457,46.387,0
1528297612.207,18.066,65.430,40.527,31.250,59.570,0
1528297612.211,24.902,61.523,39.062,27.832,82.031,0
1528297612.215,36.621,58.594,39.062,31.738,34.668,0
1528297612.215,24.414,59.082,39.551,23.926,23.926,0
1528297612.219,33.203,61.523,37.109,21.973,90.820,0
1528297612.223,62.500,60.059,34.668,36.621,83.984,0
1528297612.227,62.500,61.035,31.738,40.527,14.648,0
1528297612.231,21.484,60.059,29.297,34.180,8.301,0
1528297612.235,-9.277,55.664,31.738,29.297,25.391,0
1528297612.239,4.395,58.105,34.180,35.645,42.969,0
1528297612.242,36.621,60.547,36.621,41.992,-14.160,0
1528297612.246,35.156,63.965,40.039,31.250,-15.625,0
1528297612.250,13.184,63.965,40.527,26.367,32.227,0
1528297612.254,16.602,63.965,38.574,25.879,41.016,0
1528297612.258,35.156,64.453,36.621,34.668,10.254,0
1528297612.275,29.297,63.965,37.109,28.320,14.648,0
1528297612.279,4.883,64.453,39.062,18.555,40.527,0
1528297612.283,11.230,66.895,39.062,23.926,-14.160,0
1528297612.287,31.738,69.824,39.551,34.668,-8.301,0
1528297612.291,29.785,71.289,39.551,41.992,29.297,0
1528297612.295,16.113,71.289,39.551,36.133,12.207,0
1528297612.299,1.953,70.801,36.133,25.879,14.648,0
1528297612.302,14.648,71.777,33.203,30.762,-2.441,0
1528297612.306,38.574,67.871,33.691,36.133,38.574,0
1528297612.310,27.832,69.336,39.062,24.414,34.180,0
1528297612.314,10.254,72.266,39.551,18.555,8.301,0
1528297612.318,21.484,69.824,35.645,26.855,36.621,0
1528297612.314,51.758,68.359,35.156,35.645,59.570,0
1528297612.318,34.180,69.336,35.645,30.273,51.270,0
1528297612.322,-0.488,67.871,37.109,20.508,10.742,0
1528297612.326,19.531,69.824,35.645,22.949,54.688,0
1528297612.330,50.781,71.777,30.762,35.645,13.184,0
1528297612.334,50.781,71.289,30.762,38.086,21.484,0
1528297612.338,27.832,70.801,41.016,32.227,65.430,0
1528297612.341,27.832,70.312,42.969,32.715,30.273,0
1528297612.345,65.918,70.801,37.598,39.062,38.574,0
1528297612.349,59.570,70.312,35.156,43.945,52.246,0
1528297612.353,30.273,68.848,37.109,35.156,19.043,0
1528297612.357,21.973,67.383,38.574,40.527,-0.488,0
1528297612.353,30.762,67.383,36.621,51.758,16.602,0
1528297612.357,58.594,68.848,33.203,53.223,17.090,0
1528297612.361,49.805,71.289,34.180,40.039,-6.836,0
1528297612.365,34.180,69.336,33.203,28.809,24.902,0
1528297612.369,40.527,68.359,27.832,42.969,53.711,0
1528297612.373,48.340,68.359,33.203,41.016,10.254,0
1528297612.377,29.785,71.289,40.039,23.926,24.902,0
1528297612.380,1.953,72.754,36.133,26.855,3.906,0
1528297612.384,4.883,70.801,36.621,24.414,-52.246,0
1528297612.388,33.203,72.754,36.621,34.668,14.160,0
1528297612.392,33.691,72.754,32.715,34.180,75.684,0
1528297612.396,6.836,68.359,32.227,20.996,23.926,0
1528297612.414,11.230,67.871,32.227,24.902,6.836,0
1528297612.418,38.574,66.406,33.203,33.203,35.645,0
1528297612.422,41.016,65.430,33.691,28.320,44.922,0
1528297612.426,20.020,68.848,34.668,25.391,27.832,0
1528297612.430,10.742,70.801,35.156,23.438,9.766,0
1528297612.434,24.414,70.312,38.574,28.320,34.668,0
1528297612.438,34.180,69.336,38.574,27.832,37.109,0
1528297612.441,31.250,73.242,38.574,19.043,43.945,0
1528297612.445,15.137,74.219,45.898,17.090,1.465,0
1528297612.449,0.488,69.824,45.898,-0.488,-18.555,0
1528297612.453,4.883,68.848,39.062,-9.277,40.039,0
1528297612.457,2.441,72.266,45.898,-11.230,84.961,0
1528297612.454,-19.531,78.613,49.316,-25.391,31.250,0
1528297612.458,-33.203,79.590,42.969,-34.180,-35.156,0
1528297612.462,-28.809,78.125,44.922,-27.344,-3.418,0
1528297612.466,-47.363,82.031,45.898,-38.086,4.883,0
1528297612.470,-75.684,83.496,38.574,-59.570,-5.859,0
1528297612.474,-94.238,79.590,43.945,-69.824,3.906,0
1528297612.478,-79.102,79.102,49.805,-71.777,-9.277,0
1528297612.481,-66.406,79.102,44.922,-77.637,22.461,0
1528297612.485,-98.145,82.031,43.457,-99.121,35.645,0
1528297612.489,-119.141,81.055,47.363,-106.445,11.230,0
1528297612.493,-87.402,82.520,42.480,-101.074,12.207,0
1528297612.497,-73.730,84.473,40.527,-96.191,9.277,0
1528297612.495,-100.586,83.496,44.434,-98.633,40.527,0
1528297612.499,-117.676,81.543,48.828,-100.586,70.801,0
1528297612.503,-116.211,76.660,56.152,-96.191,46.875,0
1528297612.507,-80.078,76.172,54.199,-89.844,55.176,0
1528297612.511,-68.848,77.148,45.898,-87.402,86.914,0
1528297612.515,-83.984,75.684,41.504,-85.938,61.035,0
1528297612.519,-69.336,72.754,46.387,-68.359,13.184,0
1528297612.522,-31.738,67.871,48.828,-42.969,-2.441,0
1528297612.526,1.953,66.895,44.434,-35.156,28.320,0
1528297612.530,-1.465,68.848,41.504,-27.344,6.348,0
1528297612.534,-5.371,66.895,39.062,-10.742,0.488,0
1528297612.538,15.137,62.012,35.156,19.043,-11.719,0
1528297612.555,18.066,59.570,36.621,27.344,34.668,0
1528297612.559,2.930,63.965,42.969,25.879,37.598,0
1528297612.563,1.953,64.453,41.992,43.457,-49.316,0
1528297612.567,19.043,59.570,41.992,56.152,-27.344,0
1528297612.571,49.316,58.594,41.016,61.035,41.504,0
1528297612.575,50.781,60.547,35.156,62.500,48.828,0
1528297612.579,28.809,58.594,31.250,53.711,-9.766,0
1528297612.582,56.152,56.152,33.203,57.617,35.645,0
1528297612.586,85.449,56.641,34.668,72.266,24.902,0
1528297612.590,83.008,57.129,35.156,70.801,10.742,0
1528297612.594,67.383,58.105,34.668,65.430,7.324,0
1528297612.598,65.430,56.641,35.645,67.383,6.836,0
1528297612.595,85.938,57.617,35.645,73.730,44.922,0
1528297612.599,84.961,60.059,35.156,74.219,16.602,0
1528297612.603,65.918,59.082,35.645,67.871,43.945,0
1528297612.607,55.664,58.105,34.668,66.895,57.129,0
1528297612.611,67.871,56.152,33.691,70.801,50.293,0
1528297612.615,89.844,53.711,33.691,78.125,66.895,0
1528297612.619,54.688,52.734,32.715,73.730,54.688,0
1528297612.622,25.879,50.293,30.762,60.059,14.160,0
1528297612.626,51.758,50.293,32.227,63.477,47.363,0
1528297612.630,82.031,53.711,32.715,71.289,91.309,0
1528297612.634,82.031,53.711,33.691,63.477,24.414,0
1528297612.638,53.223,52.734,36.621,65.918,-1.465,0
1528297612.635,41.504,55.176,35.645,74.219,7.324,0
1528297612.639,64.941,58.594,30.762,79.590,44.922,0
1528297612.643,68.359,55.664,30.273,72.754,106.934,0
1528297612.647,47.852,52.246,31.738,62.988,41.992,0
1528297612.651,45.898,52.734,33.203,59.082,21.484,0
1528297612.655,62.012,52.734,32.227,60.547,71.777,0
1528297612.659,81.543,53.223,29.785,67.871,94.727,0
1528297612.662,64.453,54.199,31.250,57.617,98.633,0
1528297612.666,48.340,56.152,34.180,54.688,54.688,0
1528297612.670,81.543,59.082,33.691,66.406,21.973,0
1528297612.674,93.262,59.570,31.738,62.988,61.523,0
1528297612.678,71.289,56.152,28.809,51.270,24.902,0
1528297612.694,47.363,55.664,33.203,51.270,19.043,0
1528297612.698,45.898,58.594,37.109,59.570,62.500,0
1528297612.702,71.289,59.082,35.645,62.500,17.578,0
1528297612.706,73.730,58.105,37.109,61.035,0.977,0
1528297612.710,46.387,58.105,34.668,54.688,-6.836,0
1528297612.714,30.273,59.082,31.738,45.410,-1.953,0
1528297612.718,53.223,58.594,30.762,54.199,-29.785,0
1528297612.721,56.152,61.035,33.203,59.082,-36.621,0
1528297612.725,26.367,62.500,34.180,45.410,67.383,0
1528297612.729,27.832,62.500,29.297,44.922,83.496,0
1528297612.733,44.434,60.547,32.227,59.082,14.160,0
1528297612.737,51.758,57.129,37.598,55.664,53.711,0
1528297612.734,44.434,60.059,36.621,42.969,25.879,0
1528297612.738,32.227,61.035,35.645,46.875,-5.371,0
1528297612.742,52.734,56.152,35.645,54.688,49.316,0
1528297612.746,63.965,56.152,36.133,56.641,3.418,0
1528297612.750,40.527,58.594,34.668,48.340,-25.391,0
1528297612.754,21.973,58.105,34.180,42.480,16.602,0
1528297612.758,33.691,61.035,35.156,51.270,37.598,0
1528297612.761,67.383,63.965,35.156,54.199,38.574,0
1528297612.765,66.895,62.500,33.691,49.805,72.266,0
1528297612.769,50.293,61.523,36.133,47.363,58.105,0
1528297612.773,43.945,61.035,36.133,43.457,18.066,0
1528297612.777,51.758,62.500,34.180,53.223,28.809,0
1528297612.774,64.453,65.430,38.086,59.570,7.324,0
1528297612.778,38.086,65.430,37.109,53.711,10.742,0
1528297612.782,23.438,65.918,35.156,50.293,33.691,0
1528297612.786,46.387,65.430,32.715,49.805,57.129,0
1528297612.790,49.805,62.988,29.785,56.152,61.035,0
1528297612.794,34.668,61.035,33.203,52.246,-22.949,0
1528297612.798,32.227,62.988,31.250,44.922,28.809,0
1528297612.801,36.621,61.523,29.297,52.246,36.133,0
1528297612.805,59.082,61.035,31.738,57.129,-62.988,0
1528297612.809,57.129,63.477,29.785,45.410,1.953,0
1528297612.813,26.855,61.523,32.715,42.969,26.367,0
1528297612.817,24.902,59.082,35.645,49.805,20.020,0
1528297612.834,43.945,60.059,34.180,55.664,58.105,2
1528297612.838,40.039,57.129,33.691,50.781,41.016,0
1528297612.842,18.555,55.176,33.203,34.180,5.371,0
1528297612.846,29.297,58.594,32.227,38.086,77.637,0
1528297612.850,58.594,58.105,34.668,51.270,101.562,0
1528297612.854,60.059,57.617,34.180,50.781,59.082,0
1528297612.858,36.133,60.059,32.715,41.504,37.109,0
1528297612.861,24.902,61.523,34.180,39.062,-5.371,0
1528297612.865,43.457,60.059,37.109,44.922,17.578,0
1528297612.869,47.363,57.617,38.574,54.688,20.508,0
1528297612.873,19.043,56.152,35.645,41.992,-20.996,0
1528297612.877,10.254,57.129,33.203,32.715,-31.250,0
1528297612.874,38.086,58.105,33.203,49.316,-22.461,0
1528297612.878,57.617,58.105,32.227,51.270,34.668,0
1528297612.882,44.922,58.594,33.691,43.945,70.312,0
1528297612.886,31.250,55.664,35.156,44.434,24.414,0
1528297612.890,22.949,56.152,33.203,49.805,35.156,0
1528297612.894,29.297,58.105,35.645,51.270,54.199,0
1528297612.898,39.551,59.082,38.574,41.504,76.172,0
1528297612.901,41.016,64.453,40.039,41.504,72.754,0
1528297612.905,34.668,62.988,40.527,47.852,53.223,0
1528297612.909,34.180,57.617,40.527,43.945,51.758,0
1528297612.913,49.316,60.059,41.504,45.898,53.711,0
1528297612.917,29.785,62.012,36.621,37.109,72.266,0
1528297612.913,17.090,60.059,34.668,24.414,60.059,0
1528297612.917,36.621,58.105,40.039,33.203,60.547,0
1528297612.921,40.039,57.129,45.410,39.062,70.801,0
1528297612.925,20.508,58.594,45.898,32.227,86.914,0
1528297612.929,13.184,62.500,44.434,28.809,55.664,0
1528297612.933,35.645,63.477,43.457,34.668,-1.953,0
1528297612.937,53.711,62.500,41.504,42.480,-22.461,0
1528297612.940,30.273,63.965,41.504,41.504,-5.859,0
1528297612.944,12.695,63.965,37.598,29.785,18.555,0
1528297612.948,18.066,62.988,36.621,27.344,30.273,0
1528297612.952,42.969,63.965,37.598,40.039,51.758,0
1528297612.956,47.363,62.988,35.645,40.527,6.836,0
1528297612.975,20.996,59.570,36.621,27.832,-20.508,0
1528297612.979,21.484,60.059,40.527,26.855,-24.414,0
1528297612.983,50.781,62.500,43.457,35.156,0.488,0
1528297612.987,65.918,64.453,43.945,37.598,50.781,0
1528297612.991,47.852,65.918,41.992,37.109,37.598,0
1528297612.995,25.391,66.895,41.016,27.344,39.062,0
1528297612.999,30.273,64.453,41.992,35.645,57.617,0
1528297613.002,43.945,66.406,40.527,53.223,58.105,0
1528297613.006,28.809,68.359,39.062,42.969,58.105,0
1528297613.010,10.742,67.383,35.645,30.762,15.137,0
1528297613.014,15.137,65.430,37.109,34.668,27.344,0
1528297613.018,50.293,67.383,44.922,39.551,32.715,0
1528297613.015,44.922,68.359,43.945,41.992,-22.949,0
1528297613.019,10.254,66.895,43.945,37.109,9.277,0
1528297613.023,13.184,63.965,45.898,30.762,25.879,0
1528297613.027,28.809,61.035,41.992,37.598,49.316,0
1528297613.031,33.203,63.965,39.551,36.133,42.480,0
1528297613.035,8.789,64.453,40.527,25.391,19.531,0
1528297613.039,-1.953,64.941,38.086,18.555,6.348,0
1528297613.042,24.902,63.965,37.109,21.973,-35.156,0
1528297613.046,21.484,59.570,39.551,20.508,-19.043,0
1528297613.050,12.207,62.500,38.574,7.812,7.324,0
1528297613.054,11.719,64.453,36.133,4.883,8.789,0
1528297613.058,33.203,63.477,39.062,16.113,8.301,0
1528297613.054,62.012,67.871,41.016,24.414,72.754,0
1528297613.058,36.133,69.824,38.574,22.949,88.379,0
1528297613.062,10.742,67.871,36.133,14.648,11.719,0
1528297613.066,25.391,68.848,31.250,7.324,16.113,0
1528297613.070,43.945,68.848,28.320,16.602,49.316,0
1528297613.074,38.086,65.918,30.762,20.996,37.109,0
1528297613.078,20.508,62.500,32.715,16.602,23.438,0
1528297613.081,7.812,56.152,29.785,23.438,18.066,0
1528297613.085,29.297,55.664,31.738,40.527,23.438,0
1528297613.089,32.227,59.082,35.156,45.410,23.926,0
1528297613.093,7.324,63.477,35.645,28.320,16.113,0
1528297613.097,2.930,65.918,33.691,22.461,41.992,0
1528297613.113,11.230,65.918,36.133,36.621,66.406,0
1528297613.117,24.414,65.430,39.551,45.898,18.555,0
1528297613.121,13.184,63.965,37.109,35.156,28.320,0
1528297613.125,-3.418,62.500,34.668,23.926,65.430,0
1528297613.129,7.324,61.035,33.203,33.691,52.246,0
1528297613.133,24.414,57.617,33.203,37.109,86.914,0
1528297613.137,13.184,57.129,36.133,32.715,92.285,0
1528297613.140,2.441,59.570,38.574,26.855,30.273,0
1528297613.144,10.254,57.129,34.180,29.785,-9.277,0
1528297613.148,34.668,58.105,31.250,44.922,-22.461,0
1528297613.152,44.434,59.082,39.551,40.039,10.742,0
1528297613.156,26.367,57.129,42.480,40.039,48.340,0
1528297613.154,29.297,59.082,42.480,44.922,48.340,0
1528297613.158,61.035,62.988,42.969,39.062,4.395,0
1528297613.162,51.758,64.941,38.574,43.457,25.391,0
1528297613.166,23.926,63.477,39.062,37.109,77.148,0
1528297613.170,11.230,61.523,49.316,29.297,59.570,0
1528297613.174,20.996,61.035,52.246,39.551,45.410,0
1528297613.178,42.969,61.035,46.387,42.480,98.633,0
1528297613.181,33.691,61.523,42.969,29.297,59.082,0
1528297613.185,24.414,63.477,41.992,21.484,29.785,0
1528297613.189,39.551,62.988,38.574,30.762,1.953,0
1528297613.193,62.500,61.035,35.645,34.180,53.711,0
1528297613.197,52.734,61.523,34.668,30.273,100.098,0
1528297613.215,25.391,58.594,36.133,28.320,-10.742,0
1528297613.219,13.184,55.664,38.086,34.180,-3.906,0
1528297613.223,34.668,57.617,37.109,40.039,53.711,0
1528297613.227,40.527,60.059,35.156,40.527,1.953,0
1528297613.231,3.906,60.059,32.227,37.109,-33.203,0
1528297613.235,-11.230,60.547,34.668,30.273,23.926,0
1528297613.239,-0.488,58.105,39.551,31.250,0.488,0
1528297613.242,13.672,56.152,39.062,30.762,-1.465,0
1528297613.246,12.207,57.617,36.621,26.367,41.016,0
1528297613.250,5.371,56.641,36.621,28.320,92.773,0
1528297613.254,7.324,55.664,37.598,26.855,84.961,0
1528297613.258,20.508,56.152,36.133,27.344,60.547,0
1528297613.255,20.020,56.641,34.668,27.832,31.250,0
1528297613.259,11.719,61.035,37.109,22.461,10.742,0
1528297613.263,33.203,62.012,37.598,27.344,17.090,0
1528297613.267,54.199,60.547,39.551,33.203,37.109,0
1528297613.271,43.457,59.082,41.992,21.973,54.199,0
1528297613.275,20.508,59.082,42.480,17.090,27.344,0
1528297613.279,24.902,62.012,40.039,25.391,63.477,0
1528297613.282,54.199,62.988,38.086,38.086,49.316,0
1528297613.286,59.570,61.523,36.621,36.621,14.160,0
1528297613.290,45.898,61.035,35.645,22.949,-5.371,0
1528297613.294,28.809,58.594,35.156,18.555,14.648,0
1528297613.298,31.250,58.105,37.109,20.996,5.859,0
1528297613.295,39.551,62.500,37.598,27.344,42.480,0
1528297613.299,21.484,63.477,38.086,21.484,68.359,0
1528297613.303,7.812,63.965,39.062,21.484,38.574,0
1528297613.307,22.949,64.941,38.086,38.574,21.973,0
1528297613.311,43.945,65.430,36.133,43.945,8.789,0
1528297613.315,44.922,65.430,33.691,33.691,37.109,0
1528297613.319,24.902,65.430,34.180,22.461,26.367,0
1528297613.322,15.137,66.895,36.133,31.250,17.090,0
1528297613.326,32.715,65.430,37.109,37.598,0.000,0
1528297613.330,23.926,66.406,33.203,28.809,17.090,0
1528297613.334,2.441,69.824,31.250,29.297,25.391,0
1528297613.338,0.488,68.359,29.785,30.273,13.184,0
1528297613.356,24.414,65.430,28.320,41.016,41.504,0
1528297613.360,34.180,62.500,29.297,42.480,33.203,0
1528297613.364,26.855,62.500,26.367,31.250,44.922,0
1528297613.368,31.250,62.988,23.926,25.879,63.965,0
1528297613.372,43.457,60.059,26.367,31.738,-4.883,0
1528297613.376,46.387,56.152,26.855,32.715,-55.176,0
1528297613.380,26.855,55.176,30.273,21.973,0.977,0
1528297613.383,14.648,57.129,32.227,20.996,78.613,0
1528297613.387,29.785,59.570,28.809,23.926,43.945,0
1528297613.391,42.969,59.082,29.785,29.785,18.555,0
1528297613.395,35.156,59.570,34.668,27.344,5.371,0
1528297613.399,17.090,60.059,32.715,21.484,-3.418,0
1528297613.395,16.113,59.570,27.832,19.043,66.895,0
1528297613.399,36.133,59.570,26.855,26.855,53.223,0
1528297613.403,33.203,59.570,29.785,32.715,50.293,0
1528297613.407,12.207,59.082,31.738,22.461,21.484,0
1528297613.411,12.207,59.570,29.297,20.508,-0.488,0
1528297613.415,36.621,59.570,25.879,34.180,52.246,0
1528297613.419,43.945,59.082,28.809,34.668,1.465,0
1528297613.422,21.973,61.523,31.738,20.508,-25.391,0
1528297613.426,22.949,65.430,30.273,28.809,0.488,0
1528297613.430,46.875,65.918,29.297,38.574,38.086,0
1528297613.434,43.457,63.477,34.668,34.180,28.809,0
1528297613.438,27.344,64.453,32.227,26.367,16.113,0
1528297613.432,20.508,63.477,30.273,26.367,31.738,0
1528297613.436,24.414,61.523,35.156,32.715,51.758,0
1528297613.440,43.457,60.059,32.715,35.156,29.785,0
1528297613.444,28.320,59.082,35.156,35.156,-11.230,0
1528297613.448,11.719,60.547,41.016,29.297,31.250,0
1528297613.452,15.625,61.523,37.598,26.855,71.289,0
1528297613.456,30.762,60.547,33.691,35.645,51.270,0
1528297613.459,39.551,60.059,35.156,29.785,6.348,0
1528297613.463,5.371,57.129,33.691,17.090,15.625,0
1528297613.467,-9.766,58.105,33.203,11.230,29.785,0
1528297613.471,34.180,63.965,33.203,15.137,-4.395,0
1528297613.475,59.082,65.430,31.738,31.738,6.348,0
1528297613.494,34.180,63.965,32.715,27.344,-36.621,0
1528297613.498,14.160,61.035,31.250,15.137,-31.738,0
1528297613.502,22.461,62.012,29.785,21.484,50.293,0
1528297613.506,35.156,62.012,30.273,29.297,61.523,0
1528297613.510,21.484,61.523,32.227,24.414,35.645,0
1528297613.514,12.207,64.941,35.645,19.531,20.996,0
1528297613.518,20.020,64.453,35.156,26.855,30.762,1
1528297613.521,48.828,60.547,33.203,35.156,-0.488,0
1528297613.525,58.594,60.547,30.762,27.344,46.387,0
1528297613.529,17.578,60.059,31.738,25.879,43.457,0
1528297613.533,6.348,58.594,31.738,34.668,-6.348,0
1528297613.537,42.969,58.594,30.762,36.133,45.898,0
1528297613.534,44.922,60.547,33.691,33.203,81.055,0
1528297613.538,9.277,62.012,33.203,26.855,62.500,0
1528297613.542,0.000,59.082,33.691,27.832,22.461,0
1528297613.546,27.344,59.082,35.645,40.039,25.391,0
1528297613.550,38.086,63.477,37.598,38.086,16.602,0
1528297613.554,20.508,64.941,40.039,24.902,48.340,0
1528297613.558,7.324,62.012,41.016,24.902,72.754,0
1528297613.561,23.926,61.523,35.645,30.762,47.852,0
1528297613.565,60.059,61.523,34.180,31.250,42.969,0
1528297613.569,45.410,58.105,32.715,26.367,-12.695,0
1528297613.573,17.578,58.594,29.785,20.020,27.832,0
1528297613.577,27.344,59.082,35.645,27.344,90.820,0
1528297613.574,44.922,57.129,36.133,37.598,74.219,0
1528297613.578,41.016,59.570,34.180,37.598,64.453,0
1528297613.582,13.184,60.059,33.691,30.273,54.688,0
1528297613.586,14.648,59.082,35.645,29.785,49.316,0
1528297613.590,34.668,58.594,38.086,40.039,41.504,0
1528297613.594,31.738,56.641,40.527,43.457,8.789,0
1528297613.598,8.789,56.641,37.598,34.668,8.301,0
1528297613.601,-2.441,60.059,32.715,32.227,59.570,0
1528297613.605,11.230,57.617,34.180,36.133,54.688,0
1528297613.609,44.922,58.105,34.180,34.180,14.648,0
1528297613.613,43.457,62.500,34.180,22.461,18.555,0
1528297613.617,19.043,62.988,34.180,20.508,32.227,0
1528297613.635,28.320,63.965,33.203,25.391,62.500,0
1528297613.639,41.992,61.523,33.691,32.227,32.227,0
1528297613.643,37.109,63.965,33.203,33.203,-4.883,0
1528297613.647,29.297,65.430,34.180,30.762,62.988,0
1528297613.651,25.879,64.941,35.156,32.715,74.707,0
1528297613.655,40.527,62.012,37.109,40.527,60.059,0
1528297613.659,40.039,57.617,36.621,34.180,36.621,0
1528297613.662,15.625,55.664,37.109,24.902,25.879,0
1528297613.666,22.461,56.641,40.527,32.227,40.039,0
1528297613.670,37.109,58.594,42.480,47.852,24.902,0
1528297613.674,41.992,61.035,41.016,52.246,22.949,0
1528297613.678,22.949,58.105,39.551,34.668,2.441,0
1528297613.675,9.766,53.711,35.156,26.367,17.578,0
1528297613.679,34.180,54.688,32.715,32.227,42.969,0
1528297613.683,41.016,56.152,35.645,35.645,19.531,0
1528297613.687,20.996,57.129,36.133,27.344,33.203,0
1528297613.691,6.836,55.664,35.156,24.902,5.371,0
1528297613.695,18.066,54.688,32.715,31.738,-5.859,0
1528297613.699,51.270,54.199,30.762,33.691,-0.977,0
1528297613.702,49.805,55.176,33.203,27.832,32.715,0
1528297613.706,19.531,56.641,31.738,23.926,75.684,0
1528297613.710,8.789,56.152,27.832,31.738,31.250,0
1528297613.714,25.879,56.152,31.250,40.039,32.715,0
1528297613.718,31.738,57.617,36.133,39.062,40.527,0
1528297613.714,14.648,58.105,35.156,33.691,17.090,0
1528297613.718,13.672,60.059,32.715,35.645,-15.137,0
1528297613.722,37.598,60.547,32.715,41.016,6.836,0
1528297613.726,48.340,60.059,33.203,37.109,52.734,0
1528297613.730,21.484,62.988,31.738,27.832,39.551,0
1528297613.734,0.977,63.965,29.785,26.855,41.504,0
1528297613.738,23.926,61.035,30.273,35.156,81.543,0
1528297613.741,39.062,58.594,30.762,41.016,4.395,0
1528297613.745,14.648,60.059,33.691,38.086,-20.508,0
1528297613.749,9.766,63.965,36.133,33.203,16.602,0
1528297613.753,22.949,62.988,34.180,29.297,27.832,0
1528297613.757,42.480,61.035,34.668,35.156,30.273,0
1528297613.775,37.598,61.523,35.156,35.156,36.621,0
1528297613.779,11.719,58.594,34.180,24.902,76.660,0
1528297613.783,14.160,55.176,29.785,20.996,-12.695,0
1528297613.787,37.598,59.570,28.809,30.762,4.883,0
1528297613.791,44.434,62.012,27.344,36.133,88.379,0
1528297613.795,21.484,60.547,28.320,27.344,21.973,0
1528297613.799,3.906,59.082,32.715,21.973,-6.348,0
1528297613.802,33.691,57.617,31.738,35.645,21.973,0
1528297613.806,54.199,58.105,33.691,42.969,53.711,0
1528297613.810,34.180,60.059,35.156,35.645,31.738,0
1528297613.814,22.949,58.594,30.762,37.598,61.035,0
1528297613.818,36.621,56.641,27.344,45.410,50.781,0
1528297613.815,59.082,54.688,31.250,52.734,-1.953,0
1528297613.819,45.410,53.711,32.227,50.293,8.789,0
1528297613.823,22.461,53.223,28.809,39.551,-3.418,0
1528297613.827,34.180,54.199,25.879,40.527,19.531,0
1528297613.831,46.387,52.734,25.879,50.781,102.051,0
1528297613.835,42.969,49.805,26.855,46.875,38.086,0
1528297613.839,26.855,48.828,24.902,34.180,-43.945,0
1528297613.842,22.949,51.758,18.555,33.691,34.668,0
1528297613.846,51.270,52.734,17.090,42.480,83.008,0
1528297613.850,52.246,48.828,19.531,41.016,75.195,0
1528297613.854,33.691,43.945,21.484,30.762,51.758,0
1528297613.858,43.945,42.969,22.949,29.785,-0.977,0
1528297613.855,57.617,43.945,24.902,38.574,22.949,0
1528297613.859,57.129,44.922,25.879,45.898,66.895,0
1528297613.863,29.297,47.363,25.879,34.180,24.414,0
1528297613.867,11.230,48.340,25.391,25.391,11.719,0
1528297613.871,34.180,46.875,24.902,26.367,12.207,0
1528297613.875,46.387,43.945,25.879,26.855,48.828,0
1528297613.879,26.367,43.457,29.297,30.273,47.852,0
1528297613.882,-1.953,45.410,30.273,29.297,40.039,0
1528297613.886,0.000,46.875,28.320,26.367,24.902,0
1528297613.890,26.367,49.805,27.344,33.203,33.691,0
1528297613.894,27.832,51.270,26.855,30.273,68.359,0
1528297613.898,17.578,49.805,29.297,16.602,40.527,0
1528297613.915,10.742,47.363,26.367,16.113,45.410,0
1528297613.919,34.668,45.898,26.367,23.926,25.391,0
1528297613.923,47.852,48.340,32.715,26.367,19.531,0
1528297613.927,20.020,46.387,33.203,13.672,34.180,0
1528297613.931,6.836,45.410,30.762,10.742,35.645,0
1528297613.935,22.461,45.898,34.180,29.785,69.336,0
1528297613.939,28.809,40.527,36.621,34.180,21.484,0
1528297613.942,17.090,40.527,34.180,21.973,2.930,0
1528297613.946,11.230,46.387,32.715,13.672,-14.160,0
1528297613.950,18.555,50.781,29.785,14.160,-19.531,0
1528297613.954,35.156,50.293,29.297,23.926,34.180,0
1528297613.958,31.738,49.805,31.738,19.531,48.828,0
1528297613.955,14.160,51.758,33.203,16.602,71.777,0
1528297613.959,18.066,51.270,33.691,28.320,70.801,0
1528297613.963,39.551,50.781,31.250,32.715,51.758,0
1528297613.967,37.109,54.199,32.227,22.949,55.664,0
1528297613.971,13.672,53.711,33.691,13.672,30.762,0
1528297613.975,7.812,55.176,36.133,15.137,18.066,0
1528297613.979,39.062,58.594,40.039,17.578,3.906,0
1528297613.982,50.781,56.641,36.621,14.648,-38.574,0
1528297613.986,29.297,56.152,35.645,8.789,-52.246,0
1528297613.990,13.672,56.641,34.180,12.207,-31.250,0
1528297613.994,28.320,61.035,32.715,20.020,1.465,0
1528297613.998,48.828,64.941,32.227,25.391,48.340,0
1528297613.995,32.715,64.941,32.715,22.949,65.430,0
1528297613.999,13.184,60.059,38.574,18.555,47.852,0
1528297614.003,19.043,54.199,38.086,26.367,54.688,0
1528297614.007,49.805,57.129,34.668,34.668,83.496,0
1528297614.011,46.875,59.570,31.250,40.039,68.848,0
1528297614.015,7.324,57.129,29.785,36.133,-20.020,0
1528297614.019,2.930,57.617,34.180,29.297,15.137,0
1528297614.022,21.484,61.523,40.527,39.062,103.027,0
1528297614.026,21.973,62.500,42.480,34.668,73.730,0
1528297614.030,15.137,64.453,39.551,21.973,68.848,0
1528297614.034,7.812,66.406,41.504,28.320,40.039,0
1528297614.038,24.902,63.965,41.504,41.016,-19.531,0
1528297614.054,33.203,64.941,37.109,38.086,4.883,0
1528297614.058,17.090,64.453,40.039,31.738,41.016,0
1528297614.062,13.672,64.941,40.039,30.273,-9.766,0
1528297614.066,25.879,66.895,34.180,27.344,26.855,0
1528297614.070,41.504,66.895,35.645,24.414,55.176,0
1528297614.074,25.879,66.895,40.527,33.203,49.316,0
1528297614.078,6.836,66.895,40.527,29.785,53.223,0
1528297614.081,22.949,66.406,37.109,22.949,28.809,0
1528297614.085,39.551,68.848,38.086,27.832,95.703,0
1528297614.089,31.738,69.336,42.480,26.367,68.359,0
1528297614.093,13.672,63.965,42.480,20.996,-7.324,0
1528297614.097,11.719,62.988,40.039,18.066,11.230,0
1528297614.092,35.156,61.035,38.086,26.855,18.066,0
1528297614.096,45.898,57.617,37.109,33.203,22.949,0
1528297614.100,27.344,60.059,34.668,21.484,30.762,0
1528297614.104,15.137,58.594,32.715,23.438,43.457,0
1528297614.108,21.973,56.641,31.738,35.156,19.043,0
1528297614.112,43.457,55.176,31.738,40.039,8.789,0
1528297614.116,41.992,53.223,32.715,40.039,61.523,0
1528297614.119,15.625,52.734,32.227,35.645,52.734,0
1528297614.123,22.949,53.223,33.203,48.828,41.016,0
1528297614.127,44.922,54.688,36.133,57.617,29.297,0
1528297614.131,47.852,59.082,36.133,39.062,73.730,0
1528297614.135,33.203,57.617,30.762,34.180,104.004,0
1528297614.135,21.973,58.105,30.273,37.109,34.180,0
1528297614.139,30.273,55.664,33.691,41.992,-2.930,1
1528297614.143,25.391,49.805,33.691,39.062,-24.902,0
1528297614.147,20.020,54.199,30.273,27.344,4.395,0
1528297614.151,32.227,57.617,30.762,28.809,53.711,0
1528297614.155,54.688,59.570,33.203,35.645,85.449,0
1528297614.159,53.711,60.547,32.227,37.109,77.637,0
1528297614.162,13.184,55.176,34.668,30.762,69.824,0
1528297614.166,-9.277,55.176,35.156,24.414,70.312,0
1528297614.170,23.438,56.641,30.762,31.738,19.531,0
1528297614.174,45.410,55.176,29.297,32.715,-6.836,0
1528297614.178,35.156,58.594,30.762,25.391,17.090,0
1528297614.195,15.137,60.059,29.297,23.926,52.734,0
1528297614.199,16.113,59.570,27.832,30.273,90.332,0
1528297614.203,36.133,59.082,31.738,41.504,72.754,0
1528297614.207,33.691,57.129,33.203,31.738,0.488,0
1528297614.211,14.160,55.664,32.227,25.391,-23.926,0
1528297614.215,2.441,54.199,33.203,27.832,5.859,0
1528297614.219,24.902,53.711,31.250,32.715,49.316,0
1528297614.222,37.598,56.641,32.715,30.273,25.391,0
1528297614.226,20.020,55.664,37.109,22.461,4.883,0
1528297614.230,25.879,56.641,35.156,30.273,61.523,0
1528297614.234,47.363,57.129,37.598,41.016,58.594,0
1528297614.238,54.688,54.199,38.574,39.551,41.992,0
1528297614.235,34.668,57.617,37.109,27.832,54.688,0
1528297614.239,16.113,57.617,35.645,23.926,41.016,0
1528297614.243,34.668,55.664,34.668,36.133,49.316,0
1528297614.247,63.965,57.129,35.156,41.504,-2.930,0
1528297614.251,48.340,53.711,33.691,35.645,12.207,0
1528297614.255,13.184,51.758,29.297,26.367,45.410,0
1528297614.259,22.461,53.223,26.855,35.645,18.555,0
1528297614.262,49.316,53.711,26.855,46.875,28.320,0
1528297614.266,44.434,53.223,25.879,37.109,-26.855,0
1528297614.270,28.320,49.805,25.391,20.996,-5.371,0
1528297614.274,30.762,51.270,24.902,19.531,52.734,0
1528297614.278,48.828,57.617,23.926,29.785,-0.977,0
1528297614.275,49.316,58.105,25.391,32.227,-7.324,0
1528297614.279,22.949,58.105,26.855,22.949,26.855,0
1528297614.283,4.395,54.199,23.926,22.949,41.016,0
1528297614.287,29.297,56.152,25.391,29.297,45.410,0
1528297614.291,46.875,59.570,28.809,34.668,2.930,0
1528297614.295,29.297,62.012,26.367,33.203,-9.766,0
1528297614.299,15.625,61.523,26.367,24.414,24.414,0
1528297614.302,20.020,54.688,27.832,28.809,27.832,0
1528297614.306,36.621,55.176,26.855,35.645,16.602,0
1528297614.310,28.809,57.129,26.367,37.109,25.391,0
1528297614.314,14.160,58.105,28.809,25.391,49.805,0
1528297614.318,24.414,59.082,28.320,31.738,31.250,0
1528297614.336,56.641,56.152,30.762,48.340,24.902,0
1528297614.340,60.547,55.176,32.715,46.387,111.328,0
1528297614.344,27.344,51.758,28.320,38.086,90.332,0
1528297614.348,22.461,44.922,25.391,31.738,-17.090,0
1528297614.352,50.781,45.410,25.391,42.969,0.977,0
1528297614.356,49.316,44.922,27.344,45.410,37.598,0
1528297614.360,22.461,40.527,27.832,27.344,-5.371,0
1528297614.363,13.672,43.945,26.367,26.367,3.418,0
1528297614.367,36.133,46.387,28.809,37.598,41.016,0
1528297614.371,59.570,44.434,27.832,38.574,14.160,0
1528297614.375,41.992,45.898,28.320,28.809,5.859,0
1528297614.379,21.484,49.805,31.250,21.484,43.945,0
1528297614.375,38.574,46.875,29.785,25.879,32.715,0
1528297614.379,66.406,45.898,29.297,41.992,13.672,0
1528297614.383,62.500,46.387,30.762,35.645,10.742,0
1528297614.387,32.227,46.387,31.250,20.508,12.207,0
1528297614.391,21.973,45.898,29.785,26.855,30.273,0
1528297614.395,45.898,44.922,28.809,40.039,-4.883,0
1528297614.399,36.133,46.387,29.785,38.574,17.578,0
1528297614.402,5.371,48.340,30.762,22.949,27.832,0
1528297614.406,0.000,46.387,31.250,22.949,23.438,0
1528297614.410,24.414,41.504,32.227,34.668,64.941,0
1528297614.414,43.945,41.016,29.785,38.086,35.645,0
1528297614.418,23.926,42.969,25.391,32.227,-6.836,0
1528297614.413,14.160,45.410,26.855,29.297,-15.137,0
1528297614.417,38.086,46.387,26.367,35.156,18.555,0
1528297614.421,62.012,51.270,26.367,42.480,81.055,0
1528297614.425,47.363,55.664,29.297,33.203,76.660,0
1528297614.429,23.926,54.688,31.250,29.785,38.574,0
1528297614.433,35.156,53.223,34.180,38.574,25.879,0
1528297614.437,60.547,53.711,35.156,48.340,54.199,0
1528297614.440,45.898,52.734,36.133,41.016,60.059,0
1528297614.444,15.625,55.176,34.668,23.926,65.430,0
1528297614.448,21.973,57.129,32.715,29.785,56.641,0
1528297614.452,54.199,54.688,30.273,46.875,26.855,0
1528297614.456,56.152,53.711,31.738,47.363,15.137,0
1528297614.474,19.531,49.805,31.738,34.180,48.828,0
1528297614.478,10.742,47.852,28.320,28.809,97.656,0
1528297614.482,41.504,48.340,27.832,40.039,69.824,0
1528297614.486,54.688,47.363,27.832,41.504,75.684,0
1528297614.490,19.531,47.852,31.738,27.832,43.945,0
1528297614.494,-2.930,45.410,31.738,19.043,16.602,0
1528297614.498,20.508,42.480,25.879,22.461,17.090,0
1528297614.501,47.363,44.434,24.902,34.180,43.457,0
1528297614.505,28.320,48.340,24.414,27.344,50.293,0
1528297614.509,5.371,48.828,22.461,12.695,28.809,0
1528297614.513,21.484,46.387,22.949,17.578,37.109,0
1528297614.517,59.082,48.340,20.020,34.180,18.555,0
1528297614.515,41.992,47.852,22.949,36.621,65.430,0
1528297614.519,-8.301,43.945,27.832,25.879,69.336,0
1528297614.523,-3.418,44.922,26.855,20.508,11.230,0
1528297614.527,37.598,50.293,24.902,36.133,32.227,0
1528297614.531,32.227,53.223,24.902,46.875,46.875,0
1528297614.535,-11.230,50.781,29.297,27.832,52.246,0
1528297614.539,-17.578,49.805,28.320,17.090,83.496,0
1528297614.542,27.344,51.758,24.902,36.133,72.754,0
1528297614.546,51.758,55.176,28.809,52.246,48.828,0
1528297614.550,19.043,57.129,30.273,36.133,45.410,0
1528297614.554,11.230,58.105,25.879,20.508,10.254,0
1528297614.558,35.645,59.082,25.391,27.832,38.086,0
1528297614.553,69.824,62.988,27.344,41.016,88.379,0
1528297614.557,65.430,62.012,25.879,35.156,66.895,0
1528297614.561,27.344,59.570,23.438,21.484,27.832,0
1528297614.565,20.996,59.570,22.949,24.414,46.875,0
1528297614.569,51.758,57.617,20.996,33.691,54.199,0
1528297614.573,53.223,60.547,20.508,27.344,87.891,0
1528297614.577,20.996,60.547,24.414,18.555,83.496,0
1528297614.580,8.301,55.176,24.414,14.160,-2.930,0
1528297614.584,44.434,56.152,25.391,23.926,28.320,0
1528297614.588,59.570,58.594,25.391,29.785,39.062,0
1528297614.592,22.949,55.176,21.973,12.207,2.930,0
1528297614.596,-1.465,52.246,21.973,6.836,43.457,0
1528297614.615,28.320,58.105,24.414,25.879,-0.488,0
1528297614.619,59.570,61.523,26.367,41.016,25.391,0
1528297614.623,26.367,58.105,29.785,36.621,68.848,0
1528297614.627,-5.859,55.664,32.227,27.832,-8.301,0
1528297614.631,19.043,57.617,30.762,30.762,80.078,0
1528297614.635,48.340,59.082,30.762,48.828,120.605,0
1528297614.639,16.602,58.594,27.832,39.551,-7.324,0
1528297614.642,-14.160,61.035,28.320,19.531,6.836,0
1528297614.646,1.465,58.105,34.668,24.902,38.086,0
1528297614.650,47.363,59.082,35.156,44.434,10.254,0
1528297614.654,46.387,63.965,37.598,46.875,17.090,0
1528297614.658,10.254,61.523,36.621,20.996,63.477,2
1528297614.655,11.230,62.500,31.250,20.996,40.527,0
1528297614.659,41.504,65.918,30.762,37.598,36.133,0
1528297614.663,58.105,64.453,28.809,40.527,61.035,0
1528297614.667,25.391,64.941,27.344,26.855,47.852,0
1528297614.671,7.324,66.406,26.367,16.602,40.039,0
1528297614.675,30.273,64.941,27.832,28.320,-12.207,0
1528297614.679,62.500,66.406,28.809,39.551,41.016,0
1528297614.682,51.270,67.383,26.855,24.902,116.211,0
1528297614.686,5.371,63.477,29.785,16.113,80.566,0
1528297614.690,13.184,61.523,33.691,25.879,80.566,0
1528297614.694,71.289,65.430,34.180,39.551,37.109,0
1528297614.698,65.918,67.383,32.715,41.016,-4.395,0
1528297614.713,18.066,65.430,34.180,26.855,37.109,0
1528297614.717,10.742,64.941,38.086,20.508,41.992,0
1528297614.721,50.781,63.965,34.668,41.504,-9.277,0
1528297614.725,65.430,62.500,32.715,43.457,38.574,0
1528297614.729,25.391,58.594,36.133,23.438,84.473,0
1528297614.733,3.418,55.176,35.156,22.461,0.977,0
1528297614.737,45.410,57.129,34.668,43.945,27.832,0
1528297614.740,70.801,57.129,38.574,52.246,63.477,0
1528297614.744,44.434,58.105,37.598,34.668,70.801,0
1528297614.748,18.555,61.035,33.203,24.414,76.172,0
1528297614.752,35.156,60.547,34.668,37.109,14.160,0
1528297614.756,66.406,58.105,36.133,50.293,74.707,0
1528297614.755,41.016,60.059,36.133,44.922,120.117,0
1528297614.759,7.812,62.500,37.598,29.785,60.547,0
1528297614.763,21.973,67.383,37.109,22.949,-3.418,0
1528297614.767,63.477,69.336,33.691,41.016,10.742,0
1528297614.771,70.312,66.406,32.715,40.039,40.527,0
1528297614.775,16.113,62.988,33.203,20.508,21.973,0
1528297614.779,-4.395,60.547,32.715,23.438,25.879,0
1528297614.782,46.387,64.453,31.250,50.293,61.035,0
1528297614.786,67.383,67.383,33.691,53.223,57.617,0
1528297614.790,26.367,64.941,34.180,31.738,11.230,0
1528297614.794,-7.812,60.547,30.273,18.555,3.906,0
1528297614.798,26.367,60.547,30.762,29.785,2.930,0
1528297614.794,73.242,64.941,31.250,48.340,35.645,0
1528297614.798,47.852,65.918,31.250,39.551,17.578,0
1528297614.802,13.184,63.965,32.715,25.879,-23.438,0
1528297614.806,32.227,61.523,32.227,30.762,-18.066,0
1528297614.810,71.289,63.965,32.227,50.293,-41.016,0
1528297614.814,54.688,64.941,36.133,50.293,-23.438,0
1528297614.818,14.648,62.500,40.039,34.180,39.062,0
1528297614.821,16.113,60.547,39.551,35.156,34.180,0
1528297614.825,57.617,60.547,39.062,52.246,28.320,0
1528297614.829,62.500,60.059,40.039,51.270,43.457,0
1528297614.833,25.879,59.082,37.109,30.762,51.270,0
1528297614.837,17.578,53.223,35.156,25.879,58.594,0
1528297614.855,63.965,52.246,27.832,40.527,39.551,0
1528297614.859,84.473,56.641,30.762,47.852,77.637,0
1528297614.863,39.062,55.664,40.039,28.809,105.957,0
1528297614.867,5.371,54.688,41.016,14.648,46.387,0
1528297614.871,33.203,52.734,39.551,31.738,40.039,0
1528297614.875,55.176,49.316,35.645,43.945,37.109,0
1528297614.879,13.184,49.805,36.621,27.344,41.016,0
1528297614.882,-23.926,49.316,40.527,17.090,36.133,0
1528297614.886,1.953,49.805,35.156,21.973,10.254,0
1528297614.890,45.898,53.223,32.227,40.527,52.734,0
1528297614.894,33.691,52.734,30.762,37.109,119.141,0
1528297614.898,-5.859,47.363,30.273,15.625,76.172,0
1528297614.894,-0.977,43.945,33.203,20.996,16.602,0
1528297614.898,52.734,45.898,29.785,42.480,79.102,0
1528297614.902,59.082,49.316,28.809,46.387,63.477,0
1528297614.906,14.648,48.340,25.879,31.250,27.832,0
1528297614.910,2.930,48.340,25.391,25.391,21.973,0
1528297614.914,48.340,48.828,29.785,45.898,15.625,0
1528297614.918,79.102,49.805,31.250,55.664,79.102,0
1528297614.921,41.504,49.316,32.715,35.156,62.988,0
1528297614.925,9.277,47.852,33.203,25.391,57.617,0
1528297614.929,37.598,45.410,29.785,41.504,91.309,0
1528297614.933,62.012,43.945,27.344,53.223,47.363,0
1528297614.937,37.109,42.969,26.855,35.156,-3.906,0
1528297614.935,12.207,44.434,29.297,22.461,36.621,0
1528297614.939,29.297,48.340,29.297,40.039,80.566,0
1528297614.943,67.383,49.316,27.344,55.176,60.059,0
1528297614.947,64.453,50.293,27.344,45.898,-6.348,0
1528297614.951,25.879,52.734,26.855,28.809,8.789,0
1528297614.955,6.348,50.781,27.832,24.414,-10.742,0
1528297614.959,43.945,50.781,25.879,42.480,24.414,0
1528297614.962,61.035,50.781,24.414,45.898,60.059,0
1528297614.966,22.461,47.363,26.367,27.344,28.320,0
1528297614.970,7.324,48.340,25.391,17.090,22.461,0
1528297614.974,47.852,48.828,21.973,34.668,-0.977,0
1528297614.978,79.102,49.805,22.949,44.434,38.574,0
1528297614.995,45.410,53.223,24.414,27.832,54.688,0
1528297614.999,6.836,52.246,26.855,15.625,-4.395,0
1528297615.003,31.738,49.316,28.320,23.926,36.621,0
1528297615.007,75.195,49.805,26.855,41.504,94.238,0
1528297615.011,57.617,50.781,25.879,34.668,55.664,0
1528297615.015,10.254,46.387,24.414,20.020,28.320,0
1528297615.019,-3.906,42.969,29.297,30.273,28.809,0
1528297615.022,40.527,49.316,32.715,51.270,68.359,0
1528297615.026,51.758,51.270,31.738,47.363,54.199,0
1528297615.030,8.789,45.410,30.762,32.227,20.020,0
1528297615.034,6.348,43.945,30.273,29.785,11.719,0
1528297615.038,52.246,44.434,29.785,45.898,6.348,0
1528297615.035,57.129,45.898,26.855,49.805,26.367,0
1528297615.039,19.531,46.875,28.320,37.109,18.555,0
1528297615.043,2.441,43.945,31.250,29.785,7.324,0
1528297615.047,32.715,46.387,31.738,43.945,47.852,0
1528297615.051,56.152,46.875,32.227,59.570,78.125,0
1528297615.055,21.973,41.504,33.691,41.992,64.453,0
1528297615.059,3.418,45.410,35.156,28.809,83.496,0
1528297615.062,29.785,47.852,32.715,39.551,77.637,0
1528297615.066,67.383,49.316,31.738,56.152,100.586,0
1528297615.070,50.781,51.270,32.227,43.457,15.137,0
1528297615.074,5.859,49.805,32.227,13.184,-22.461,0
1528297615.078,15.625,50.293,32.227,18.066,45.898,0
1528297615.075,65.430,50.781,29.785,39.551,43.945,0
1528297615.079,64.453,51.758,27.832,38.574,53.711,0
1528297615.083,16.602,55.176,26.855,24.414,75.195,0
1528297615.087,9.277,56.152,28.320,17.578,64.941,0
1528297615.091,58.594,57.617,27.832,37.598,54.688,0
1528297615.095,78.125,59.570,27.344,45.410,84.961,0
1528297615.099,34.668,57.129,31.250,31.250,40.527,0
1528297615.102,1.465,55.176,31.250,22.949,-35.156,0
1528297615.106,25.879,55.664,30.762,31.738,4.883,0
1528297615.110,66.406,54.199,29.297,43.457,23.926,0
1528297615.114,58.105,56.152,24.414,29.297,13.184,0
1528297615.118,0.000,55.664,25.879,17.090,0.000,0
1528297615.135,-9.277,52.734,31.250,37.109,11.230,0
1528297615.139,32.227,53.223,31.738,59.082,30.273,0
1528297615.143,25.391,53.711,27.832,45.410,42.480,0
1528297615.147,-10.254,55.664,26.367,24.414,64.453,0
1528297615.151,-11.230,57.129,27.832,21.484,36.621,0
1528297615.155,34.180,58.105,23.926,45.410,11.230,0
1528297615.159,40.527,53.223,24.902,50.781,39.551,0
1528297615.162,3.418,48.340,29.297,22.949,44.434,0
1528297615.166,1.953,47.363,27.344,14.160,24.902,0
1528297615.170,49.805,51.270,25.391,37.598,55.176,0
1528297615.174,68.359,53.711,29.785,44.922,0.488,0
1528297615.178,31.250,52.246,37.598,26.367,-32.227,0
1528297615.175,10.254,52.734,38.574,16.602,1.953,0
1528297615.179,36.621,55.664,36.621,27.832,65.430,0
1528297615.183,65.918,52.734,32.715,41.504,113.770,0
1528297615.187,36.621,46.875,29.785,28.320,16.113,0
1528297615.191,4.395,50.293,31.250,15.137,-39.551,0
1528297615.195,19.531,55.664,31.738,27.344,26.855,0
1528297615.199,65.918,54.688,29.297,50.293,32.227,0
1528297615.202,56.152,52.734,31.250,44.434,50.293,0
1528297615.206,0.488,52.246,32.715,20.020,51.270,0
1528297615.210,0.977,52.246,28.809,12.695,3.418,0
1528297615.214,43.457,54.199,26.855,31.738,-5.371,0
1528297615.218,62.012,56.641,33.203,37.109,7.324,0
1528297615.215,26.367,53.711,33.203,13.672,17.090,0
1528297615.219,-2.930,53.223,29.785,4.395,-7.812,0
1528297615.223,23.438,57.617,34.668,32.227,26.855,0
1528297615.227,41.504,57.129,36.621,47.852,52.246,0
1528297615.231,6.836,57.617,37.109,26.367,37.109,0
1528297615.235,-17.578,57.617,40.039,14.648,38.574,0
1528297615.239,19.531,56.641,37.598,35.645,62.988,0
1528297615.242,67.383,55.664,36.621,50.293,61.523,0
1528297615.246,41.504,54.688,39.062,31.250,61.035,0
1528297615.250,10.742,57.617,39.551,17.090,-2.441,0
1528297615.254,26.855,60.059,38.574,22.949,-14.648,0
1528297615.258,74.707,62.988,39.062,49.805,80.078,0
1528297615.275,69.336,59.570,38.086,49.805,70.312,0
1528297615.279,8.301,56.641,36.133,24.902,46.875,0
1528297615.283,0.977,55.664,34.668,16.113,21.484,0
1528297615.287,58.105,56.152,33.203,36.133,9.766,0
1528297615.291,74.707,58.105,33.203,47.852,37.109,1
1528297615.295,24.414,51.270,34.668,26.367,7.812,0
1528297615.299,-5.859,48.340,33.203,11.230,-33.203,0
1528297615.302,42.480,56.152,30.273,27.832,-2.441,0
1528297615.306,76.172,60.547,29.785,45.898,28.809,0
1528297615.310,33.691,59.570,32.227,30.762,6.348,0
1528297615.314,-1.953,58.105,29.785,13.184,-24.902,0
1528297615.318,20.020,60.059,29.297,23.926,20.508,0
1528297615.315,76.660,62.988,34.668,47.852,87.402,0
1528297615.319,53.711,62.012,31.250,38.086,31.250,0
1528297615.323,-4.883,56.641,29.785,13.184,-59.082,0
1528297615.327,-2.441,57.617,36.133,17.578,4.395,0
1528297615.331,40.527,61.523,36.621,40.039,66.406,0
1528297615.335,39.551,59.570,35.645,34.180,75.684,0
1528297615.339,1.465,61.523,35.645,14.160,65.918,0
1528297615.342,0.488,62.500,35.156,14.648,11.719,0
1528297615.346,54.688,62.012,33.203,37.598,53.223,0
1528297615.350,65.918,60.547,31.738,42.969,44.434,0
1528297615.354,18.066,58.105,30.273,13.672,-9.277,0
1528297615.358,-9.766,57.129,31.250,5.859,3.418,0
1528297615.353,19.531,56.641,30.273,26.367,38.574,0
1528297615.357,68.359,58.105,26.855,41.504,73.730,0
1528297615.361,37.109,58.105,28.809,26.367,37.109,0
1528297615.365,-3.418,57.617,32.715,7.812,24.414,0
1528297615.369,24.902,58.105,34.668,18.555,-2.930,0
1528297615.373,66.895,59.082,35.645,44.922,17.578,0
1528297615.377,53.223,59.570,35.156,37.598,87.891,0
1528297615.380,5.859,54.688,32.227,19.043,45.898,0
1528297615.384,-6.348,51.270,31.250,12.207,32.227,0
1528297615.388,47.852,56.641,30.762,29.297,63.965,0
1528297615.392,62.988,60.547,30.762,39.551,68.359,0
1528297615.396,12.207,59.570,35.156,19.043,73.730,0
1528297615.414,-3.906,57.617,38.086,14.648,56.152,0
1528297615.418,43.945,58.105,36.133,38.574,33.203,0
1528297615.422,71.289,61.523,32.227,47.363,42.969,0
1528297615.426,23.438,60.547,32.227,25.391,75.684,0
1528297615.430,-17.578,57.617,33.691,13.672,71.289,0
1528297615.434,17.578,57.129,32.227,28.320,15.625,0
1528297615.438,57.129,56.152,31.738,43.457,42.969,0
1528297615.441,29.297,54.688,32.715,22.949,81.055,0
1528297615.445,-5.859,54.688,34.180,6.836,28.809,0
1528297615.449,10.254,54.688,36.621,20.020,-22.461,0
1528297615.453,61.523,56.641,32.715,42.480,-34.180,0
1528297615.457,51.270,58.105,26.855,35.645,32.227,0
1528297615.455,0.000,54.688,32.715,14.160,34.180,0
1528297615.459,-8.301,52.734,36.133,11.719,20.020,0
1528297615.463,46.387,55.664,32.227,37.598,66.895,0
1528297615.467,61.523,56.152,30.762,42.969,43.945,0
1528297615.471,13.184,52.246,31.250,19.043,28.320,0
1528297615.475,-7.324,47.852,31.738,13.672,39.062,0
1528297615.479,32.227,52.246,31.250,34.180,-2.930,0
1528297615.482,69.824,57.617,36.133,52.734,5.371,0
1528297615.486,41.504,56.641,37.109,37.109,54.199,0
1528297615.490,-5.859,53.711,32.715,14.160,72.266,0
1528297615.494,18.555,50.781,31.738,27.832,48.828,0
1528297615.498,70.801,54.199,32.227,54.199,7.324,0
1528297615.495,47.363,56.152,34.180,38.086,28.809,0
1528297615.499,3.418,50.293,33.203,14.160,16.113,0
1528297615.503,14.648,46.387,31.738,17.090,0.977,0
1528297615.507,64.453,46.875,32.715,34.668,49.316,0
1528297615.511,50.293,48.828,32.715,35.156,76.172,0
1528297615.515,-1.953,45.898,33.203,18.066,1.953,0
1528297615.519,-10.254,45.898,32.715,7.812,-25.391,0
1528297615.522,40.527,50.293,30.762,26.855,31.250,0
1528297615.526,61.035,49.805,28.809,39.551,39.551,0
1528297615.530,18.066,52.246,28.809,22.461,20.020,0
1528297615.534,-6.836,53.711,31.250,12.695,58.105,0
1528297615.538,31.738,52.246,30.273,38.086,41.504,0
1528297615.555,74.219,51.270,30.762,59.570,46.387,0
1528297615.559,42.969,51.758,34.180,38.574,109.863,0
1528297615.563,3.906,47.852,30.273,17.578,38.086,0
1528297615.567,27.344,47.363,26.855,33.203,24.902,0
1528297615.571,65.430,55.176,31.738,56.152,119.141,0
1528297615.575,37.598,53.711,34.180,46.875,105.957,0
1528297615.579,-15.625,44.922,28.809,19.531,44.922,0
1528297615.582,2.930,44.434,22.949,16.113,5.859,0
1528297615.586,68.848,48.828,26.367,45.898,35.645,0
1528297615.590,69.336,51.270,29.297,46.387,37.109,0
1528297615.594,25.391,53.223,31.738,21.484,-4.883,0
1528297615.598,4.883,54.199,31.250,17.578,-22.949,0
1528297615.595,55.176,55.176,29.297,37.598,1.465,0
1528297615.599,85.449,56.152,32.227,48.340,29.297,0
1528297615.603,30.273,49.805,32.715,22.461,20.508,0
1528297615.607,-11.230,49.316,32.715,12.695,41.016,0
1528297615.611,20.996,53.223,31.250,28.809,1.465,0
1528297615.615,58.594,56.641,28.809,38.086,15.137,0
1528297615.619,26.855,59.570,30.273,26.367,65.430,0
1528297615.622,-20.508,56.152,28.320,0.977,9.766,0
1528297615.626,-4.395,56.641,33.691,5.859,35.645,0
1528297615.630,50.293,59.082,38.086,35.156,45.410,0
1528297615.634,32.227,55.664,31.250,19.531,-48.340,0
1528297615.638,-17.090,54.688,31.250,-11.719,-56.152,0
1528297615.635,-12.207,56.152,34.180,-12.207,-23.438,0
1528297615.639,40.039,61.523,31.738,8.789,44.434,0
1528297615.643,30.762,64.941,36.621,7.812,97.168,0
1528297615.647,-35.156,63.477,34.668,-17.578,24.902,0
1528297615.651,-56.152,59.082,35.156,-26.367,-13.184,0
1528297615.655,-16.113,58.105,38.574,-16.113,44.922,0
1528297615.659,5.371,62.500,38.086,-12.207,59.082,0
1528297615.662,-46.387,56.641,48.828,-39.062,43.945,0
1528297615.666,-90.332,56.641,52.246,-65.918,-38.086,0
1528297615.670,-62.500,51.758,43.457,-60.547,-33.691,0
1528297615.674,-35.156,62.012,39.062,-54.688,47.363,0
1528297615.678,-82.031,59.570,42.480,-81.055,68.359,0
1528297615.695,-134.766,70.312,42.480,-109.863,43.457,0
1528297615.699,-126.953,96.191,37.109,-119.141,44.434,0
1528297615.703,-83.008,78.125,39.062,-104.980,68.359,0
1528297615.707,-105.469,80.078,41.992,-124.512,56.641,0
1528297615.711,-158.691,96.680,39.551,-145.508,44.922,0
1528297615.715,-164.551,98.633,41.016,-142.578,6.348,0
1528297615.719,-122.070,96.191,43.945,-126.953,18.555,0
1528297615.722,-93.262,94.238,42.969,-116.699,53.223,0
1528297615.726,-122.559,87.891,38.574,-128.418,88.379,0
1528297615.730,-135.254,78.125,38.086,-120.605,68.359,0
1528297615.734,-74.707,71.289,38.574,-75.195,-4.883,0
1528297615.738,-19.531,72.754,36.621,-40.039,5.371,0
1528297615.735,-42.480,71.289,35.645,-55.664,37.598,0
1528297615.739,-56.152,70.801,34.668,-55.664,61.035,0
1528297615.743,-11.719,75.684,31.250,-20.020,78.125,0
1528297615.747,38.086,72.266,24.902,5.371,65.918,0
1528297615.751,29.785,65.430,26.855,8.301,24.902,0
1528297615.755,-2.930,60.059,30.273,0.977,-18.555,0
1528297615.759,0.977,55.664,26.367,14.160,-15.625,0
1528297615.762,63.477,52.734,26.855,49.805,2.930,0
1528297615.766,78.613,52.246,29.297,56.152,-2.930,0
1528297615.770,29.785,48.340,28.809,39.062,0.977,0
1528297615.774,26.855,47.363,30.273,40.527,-26.367,0
1528297615.778,90.820,51.270,32.227,75.684,0.488,0
1528297615.775,111.816,48.340,30.273,90.820,35.156,0
1528297615.779,75.684,42.969,26.367,68.848,23.926,0
1528297615.783,48.828,40.527,27.832,59.570,-21.484,0
1528297615.787,86.914,45.898,31.738,79.590,-30.762,0
1528297615.791,129.395,47.363,31.250,99.121,67.383,0
1528297615.795,89.355,42.480,34.180,85.449,71.777,0
1528297615.799,45.898,44.922,33.203,67.871,13.672,0
1528297615.802,60.059,47.852,30.273,75.195,23.926,0
1528297615.806,114.746,47.852,32.715,93.262,66.406,0
1528297615.810,111.816,50.781,31.738,82.520,53.223,0
1528297615.814,65.430,51.270,29.297,60.059,38.086,0
1528297615.818,67.871,48.828,29.785,62.988,24.414,0
1528297615.835,115.234,48.340,29.297,85.938,2.930,0
1528297615.839,122.070,48.828,27.832,87.402,2.930,0
1528297615.843,73.242,46.387,30.273,68.359,-10.254,0
1528297615.847,51.270,42.969,25.879,63.477,19.531,0
1528297615.851,94.727,42.969,22.461,82.031,2.441,0
1528297615.855,109.863,46.875,25.391,93.750,2.441,0
1528297615.859,59.082,44.922,25.391,64.941,-51.758,0
1528297615.862,41.992,41.992,27.344,47.852,-84.473,0
1528297615.866,74.219,43.945,26.855,69.336,3.418,0
1528297615.870,97.168,44.434,24.414,91.797,75.195,0
1528297615.874,74.707,43.457,33.203,81.543,81.055,0
1528297615.878,42.969,43.457,36.133,62.500,31.738,0
1528297615.875,58.105,40.527,33.691,68.848,39.062,0
1528297615.879,110.352,41.504,33.203,90.820,71.289,0
1528297615.883,87.402,41.504,34.668,81.543,85.938,0
1528297615.887,25.391,37.109,36.133,52.734,77.148,0
1528297615.891,31.738,37.109,33.203,55.664,27.832,0
1528297615.895,90.332,40.527,31.250,83.496,7.812,0
1528297615.899,97.168,43.945,32.715,83.008,-12.207,0
1528297615.902,38.086,44.434,35.645,55.664,1.953,0
1528297615.906,6.836,41.992,34.668,44.434,0.000,0
1528297615.910,50.293,41.992,31.738,63.477,1.465,0
1528297615.914,93.750,45.410,29.297,74.707,94.238,0
1528297615.918,61.035,46.875,27.832,56.641,56.152,0
1528297615.915,24.902,45.410,30.273,36.133,-63.965,0
1528297615.919,57.617,46.387,29.297,49.805,11.230,0
1528297615.923,108.887,46.875,25.879,74.219,46.875,0
1528297615.927,69.824,46.387,31.738,58.105,0.977,0
1528297615.931,13.184,46.387,34.180,44.922,20.996,0
1528297615.935,28.320,46.387,28.809,52.246,28.809,0
1528297615.939,83.008,45.898,27.832,73.242,41.504,0
1528297615.942,66.406,41.504,26.367,65.918,68.848,0
1528297615.946,13.672,41.992,30.273,34.668,66.406,0
1528297615.950,22.461,45.410,33.203,40.527,37.598,0
1528297615.954,83.008,45.898,28.809,75.684,48.340,0
1528297615.958,101.562,49.316,28.809,83.008,49.805,0
1528297615.975,42.969,50.293,29.785,52.246,29.785,1
1528297615.979,14.648,45.898,27.832,37.598,-15.137,0
1528297615.983,59.082,48.340,28.809,58.594,14.648,0
1528297615.987,94.727,51.758,29.297,72.754,60.059,0
1528297615.991,53.711,49.805,27.832,48.340,27.832,0
1528297615.995,0.977,44.922,29.297,26.855,5.371,0
1528297615.999,26.855,46.387,30.273,39.551,19.531,0
1528297616.002,83.008,51.758,30.273,57.617,88.379,0
1528297616.006,62.500,53.223,35.156,39.062,73.242,0
1528297616.010,15.625,50.781,36.621,22.949,-13.184,0
1528297616.014,16.113,48.340,35.156,34.668,-43.457,0
1528297616.018,76.660,49.805,35.156,55.176,41.016,0
1528297616.013,79.102,51.270,34.668,51.270,107.422,0
1528297616.017,16.113,45.898,36.621,30.762,66.895,0
1528297616.021,-4.395,41.016,35.156,27.344,44.434,0
1528297616.025,44.434,44.434,34.668,60.547,98.145,0
1528297616.029,64.941,48.828,38.086,71.777,53.711,0
1528297616.033,17.578,46.387,40.527,41.504,-22.461,0
1528297616.037,-6.836,44.434,38.086,24.414,5.371,0
1528297616.040,36.621,50.293,35.156,45.410,33.203,0
1528297616.044,73.730,54.688,33.203,67.383,43.945,0
1528297616.048,31.738,50.781,32.227,42.480,33.691,0
1528297616.052,-4.395,47.852,33.691,20.020,52.246,0
1528297616.056,34.668,50.781,35.156,37.598,44.434,0
1528297616.054,80.078,51.270,33.691,56.641,4.883,0
1528297616.058,51.758,47.852,33.691,43.457,6.348,0
1528297616.062,4.883,44.922,33.691,21.484,26.367,0
1528297616.066,25.879,48.340,32.227,35.645,63.965,0
1528297616.070,81.543,53.223,35.645,71.289,44.922,0
1528297616.074,80.566,54.688,39.062,66.895,1.953,0
1528297616.078,37.598,52.246,40.039,38.086,-8.789,0
1528297616.081,21.973,51.270,36.621,33.203,16.602,0
1528297616.085,68.848,53.711,32.227,60.547,36.133,0
1528297616.089,87.402,54.199,34.668,66.895,33.203,0
1528297616.093,39.551,53.223,39.551,43.457,52.734,0
1528297616.097,8.301,51.758,37.109,34.668,42.969,0
1528297616.115,42.480,52.734,32.715,46.387,5.371,0
1528297616.119,88.379,54.199,38.574,58.105,28.809,0
1528297616.123,51.270,54.688,41.504,38.086,35.645,0
1528297616.127,5.859,56.641,39.062,11.719,20.508,0
1528297616.131,28.809,57.617,34.180,13.672,33.691,0
1528297616.135,66.406,57.129,30.762,32.227,27.832,0
1528297616.139,53.711,58.105,32.227,25.391,36.133,0
1528297616.142,12.695,58.594,33.691,6.348,-11.719,0
1528297616.146,20.996,52.246,31.738,11.230,-41.016,0
1528297616.150,70.312,49.805,29.297,38.574,9.766,0
1528297616.154,62.500,48.828,31.250,44.922,61.523,0
1528297616.158,16.602,44.922,37.598,23.926,45.410,0
1528297616.156,4.395,45.410,37.598,20.020,39.551,0
1528297616.160,41.016,45.410,33.691,43.945,75.195,0
1528297616.164,72.266,48.828,32.227,59.082,54.688,0
1528297616.168,26.855,48.340,35.156,36.621,2.930,0
1528297616.172,-0.488,43.945,37.109,19.531,-32.715,0
1528297616.176,34.668,46.875,35.645,41.016,-29.297,0
1528297616.180,66.895,50.293,34.180,61.035,-11.719,0
1528297616.183,43.945,51.270,35.645,44.434,13.184,0
1528297616.187,-1.465,49.316,35.156,22.949,3.418,0
1528297616.191,17.578,46.387,33.203,27.832,-23.926,0
1528297616.195,81.055,50.293,34.180,49.805,41.016,0
1528297616.199,58.105,54.199,31.250,39.551,60.059,0
1528297616.194,7.324,52.734,27.832,15.137,-7.812,0
1528297616.198,6.348,48.828,28.320,16.602,-10.254,0
1528297616.202,51.270,49.316,27.832,43.457,98.633,0
1528297616.206,73.730,51.270,26.855,49.805,101.074,0
1528297616.210,30.273,46.875,29.297,26.855,33.691,0
1528297616.214,12.207,42.480,30.273,18.555,47.363,0
1528297616.218,51.758,43.457,31.738,41.992,68.359,0
1528297616.221,68.359,45.898,34.180,59.082,47.363,0
1528297616.225,29.297,47.363,36.621,38.574,24.902,0
1528297616.229,0.488,44.922,28.320,29.297,-7.324,0
1528297616.233,36.621,50.293,27.344,50.293,-63.965,0
1528297616.237,86.426,55.176,34.668,64.453,20.020,0
1528297616.275,62.500,46.875,33.691,50.293,65.918,0
1528297616.279,22.949,45.410,34.668,34.180,44.922,0
1528297616.283,20.508,46.387,33.691,41.016,19.531,0
1528297616.287,51.758,44.922,32.715,63.477,-16.113,0
1528297616.291,52.246,47.852,34.668,51.758,5.371,0
1528297616.295,15.625,47.852,34.668,23.438,23.438,0
1528297616.299,10.254,45.898,34.668,23.926,45.898,0
1528297616.302,54.199,47.363,36.133,49.316,25.879,0
1528297616.306,66.895,45.898,37.598,55.664,12.695,0
1528297616.310,20.020,43.945,39.062,32.715,-1.465,0
1528297616.314,-15.137,41.016,38.574,18.066,3.906,0
1528297616.318,28.809,45.410,32.227,34.668,60.059,0
1528297616.295,75.195,50.781,27.344,55.664,55.176,0
1528297616.299,32.715,50.781,27.832,38.086,33.691,0
1528297616.303,-3.418,48.828,28.320,19.043,-12.695,0
1528297616.307,34.668,47.852,28.809,31.738,13.672,0
1528297616.311,86.914,52.246,28.320,56.152,39.062,0
1528297616.315,59.082,51.270,25.879,43.945,-4.395,0
1528297616.319,14.160,50.293,29.297,26.367,-32.715,0
1528297616.322,17.578,54.199,32.715,32.715,-57.617,0
1528297616.326,60.547,54.688,29.785,52.734,-27.832,0
1528297616.330,68.848,55.176,27.832,55.664,33.203,0
1528297616.334,24.902,58.105,27.832,41.016,52.246,0
1528297616.338,10.742,56.641,28.809,30.762,17.090,0
1528297616.355,63.477,58.594,26.367,46.875,10.742,0
1528297616.359,81.543,59.082,22.949,48.340,27.832,0
1528297616.363,23.926,53.223,26.855,17.090,8.789,0
1528297616.367,1.465,49.316,26.367,9.766,-54.688,0
1528297616.371,41.992,51.270,20.996,31.250,-18.555,0
1528297616.375,67.383,54.688,27.832,47.363,59.082,0
1528297616.379,20.020,52.246,33.203,33.691,33.691,0
1528297616.382,-16.113,49.805,33.691,10.254,18.555,0
1528297616.386,25.879,51.270,34.180,18.066,41.016,0
1528297616.390,71.777,54.688,34.180,48.340,53.711,0
1528297616.394,51.758,55.664,34.668,41.992,77.148,0
1528297616.398,-7.812,51.758,36.621,15.137,55.664,0
1528297616.396,-22.461,49.316,38.086,13.672,-18.066,0
1528297616.400,41.504,51.758,39.551,36.133,32.227,0
1528297616.404,59.082,48.828,41.992,34.180,35.156,0
1528297616.408,16.113,45.898,43.945,6.348,0.977,0
1528297616.412,-3.906,45.898,43.457,-0.977,40.039,0
1528297616.416,34.180,46.875,41.504,25.879,24.414,0
1528297616.420,62.988,47.363,39.551,43.945,-10.254,0
1528297616.423,21.973,47.852,40.039,23.438,13.184,0
1528297616.427,-11.230,46.387,40.527,3.418,41.016,0
1528297616.431,29.785,46.875,41.016,22.461,61.035,0
1528297616.435,63.965,47.852,40.039,43.945,61.523,0
1528297616.439,29.785,46.387,38.086,27.832,4.395,0
1528297616.435,-0.977,47.363,40.039,7.812,27.344,0
1528297616.439,16.113,50.293,42.969,17.578,40.039,0
1528297616.443,65.430,52.246,41.016,46.387,18.066,0
1528297616.447,59.082,51.270,38.574,41.504,53.223,0
1528297616.451,6.348,50.781,43.945,13.672,61.523,0
1528297616.455,-15.137,48.340,44.922,11.230,21.484,0
1528297616.459,33.203,49.805,41.504,32.227,18.066,0
1528297616.462,55.176,51.270,43.457,36.133,52.734,0
1528297616.466,11.230,50.293,45.410,15.625,67.871,0
1528297616.470,-7.812,49.805,42.969,2.930,-31.250,0
1528297616.474,47.363,50.293,40.039,27.344,-59.570,0
1528297616.478,74.707,49.805,38.574,49.805,11.230,0
1528297616.496,22.461,50.781,43.945,27.832,20.020,0
1528297616.500,-6.348,49.805,47.363,11.230,35.156,0
1528297616.504,33.691,50.781,46.875,30.273,-3.418,0
1528297616.508,81.055,52.246,48.828,49.316,-5.371,0
1528297616.512,52.734,51.270,48.828,35.645,35.645,0
1528297616.516,5.371,51.758,48.340,17.578,24.414,0
1528297616.520,14.160,53.223,44.434,26.855,28.809,0
1528297616.523,56.641,54.199,39.062,43.945,64.453,0
1528297616.527,56.152,58.105,44.434,39.062,105.957,0
1528297616.531,8.789,54.688,50.781,21.484,51.758,2
1528297616.535,-5.371,50.293,53.711,16.113,6.348,0
1528297616.539,35.156,49.805,53.223,38.574,35.156,0
1528297616.535,59.082,50.293,49.316,50.293,23.438,0
1528297616.539,23.926,52.734,50.293,24.902,-9.766,0
1528297616.543,-6.836,53.223,53.223,10.254,19.531,0
1528297616.547,31.738,53.223,50.781,33.203,-8.789,0
1528297616.551,60.547,53.223,46.387,51.758,0.000,0
1528297616.555,25.391,49.805,45.898,27.832,45.898,0
1528297616.559,-8.301,44.434,47.852,8.301,33.691,0
1528297616.562,7.812,43.945,45.898,20.996,66.406,0
1528297616.566,55.664,49.805,43.945,42.480,63.965,0
1528297616.570,37.109,53.711,42.969,35.645,48.828,0
1528297616.574,-9.277,53.223,43.457,11.230,1.953,0
1528297616.578,-2.930,47.852,43.457,14.160,-44.922,0
1528297616.575,49.316,46.875,44.922,41.504,6.348,0
1528297616.579,59.082,51.758,47.852,42.969,19.043,0
1528297616.583,10.254,50.293,45.898,19.043,-11.230,0
1528297616.587,-1.465,46.387,46.387,10.742,20.996,0
1528297616.591,56.641,48.340,45.898,36.133,29.785,0
1528297616.595,67.383,51.270,45.410,48.828,46.875,0
1528297616.599,21.973,52.246,46.875,25.391,24.902,0
1528297616.602,9.277,52.734,48.340,12.695,7.324,0
1528297616.606,32.227,52.734,45.410,28.809,44.922,0
1528297616.610,68.359,53.711,44.434,50.781,43.945,0
1528297616.614,49.805,54.199,45.898,34.180,34.180,0
1528297616.618,12.207,55.176,44.922,15.137,28.809,0
1528297616.633,32.227,56.152,46.875,34.668,-0.977,0
1528297616.637,72.266,55.664,44.922,60.059,59.082,0
1528297616.641,49.316,51.758,39.062,49.805,75.195,0
1528297616.645,7.324,48.340,42.480,25.391,-11.230,0
1528297616.649,14.160,47.852,45.898,24.414,-8.789,0
1528297616.653,61.523,48.828,44.922,46.875,26.367,0
1528297616.657,57.129,46.387,41.992,47.363,37.598,0
1528297616.660,7.812,44.434,46.387,22.949,12.207,0
1528297616.664,-0.488,46.387,48.340,14.160,-16.602,0
1528297616.668,52.246,48.340,46.387,41.504,50.293,0
1528297616.672,79.590,50.781,45.898,50.293,130.859,0
1528297616.676,25.879,48.340,46.387,20.508,22.461,0
1528297616.675,-7.812,44.434,46.387,9.277,-22.949,0
1528297616.679,24.902,49.805,41.992,29.297,30.273,0
1528297616.683,64.453,56.641,40.039,44.922,38.086,0
1528297616.687,39.551,57.617,41.992,28.320,38.086,0
1528297616.691,-0.977,54.199,40.527,6.836,41.016,0
1528297616.695,18.555,53.711,37.598,17.090,48.828,0
1528297616.699,69.824,57.617,37.109,54.688,37.109,0
1528297616.702,65.918,58.105,40.039,52.734,43.945,0
1528297616.706,16.602,57.617,43.457,23.438,91.797,0
1528297616.710,11.230,55.664,42.969,30.273,85.938,0
1528297616.714,64.453,53.711,40.527,53.711,52.246,0
1528297616.718,78.125,57.129,39.062,53.223,39.062,0
1528297616.715,30.762,56.152,39.062,40.039,6.348,0
1528297616.719,12.207,52.734,38.574,29.785,-22.949,0
1528297616.723,57.617,54.199,38.574,48.340,20.020,0
1528297616.727,70.801,57.617,41.504,62.012,46.387,0
1528297616.731,18.555,54.199,41.504,41.992,52.734,0
1528297616.735,-15.137,48.340,41.016,23.438,6.348,0
1528297616.739,26.855,51.270,41.504,33.203,23.438,0
1528297616.742,73.730,57.617,38.086,53.711,70.801,0
1528297616.746,35.156,57.129,39.551,26.367,66.895,0
1528297616.750,-11.719,53.711,40.039,0.000,18.555,0
1528297616.754,10.742,56.641,35.645,13.184,-30.273,0
1528297616.758,74.219,57.129,33.203,44.434,27.344,0
1528297616.775,73.730,50.781,33.203,45.898,41.504,0
1528297616.779,4.883,51.758,33.691,5.859,-30.762,0
1528297616.783,-13.672,55.176,35.645,-2.441,-16.113,0
1528297616.787,31.738,55.176,40.039,23.438,54.199,0
1528297616.791,51.758,55.664,41.504,26.367,64.453,0
1528297616.795,17.090,54.199,41.016,14.160,28.320,0
1528297616.799,-9.277,50.781,39.551,9.277,0.488,0
1528297616.802,39.551,50.293,37.598,34.180,9.766,0
1528297616.806,84.961,50.781,38.574,55.664,11.719,0
1528297616.810,46.875,48.828,41.992,37.598,-13.672,0
1528297616.814,0.488,50.293,43.945,21.484,-20.996,0
1528297616.818,24.414,50.293,44.922,39.062,13.184,0
1528297616.836,67.871,47.852,42.969,70.801,-8.301,0
1528297616.840,44.434,45.410,40.527,61.035,12.207,0
1528297616.844,0.488,44.434,39.062,34.180,70.801,0
1528297616.848,8.301,44.434,37.598,41.016,37.598,0
1528297616.852,57.617,43.457,38.086,63.477,53.711,0
1528297616.856,58.105,42.969,37.598,58.105,83.496,0
1528297616.860,15.137,43.457,37.598,37.109,14.160,0
1528297616.863,10.254,45.898,40.039,29.785,-10.742,0
1528297616.867,68.359,48.828,41.992,50.781,1.465,0
1528297616.871,78.125,48.828,41.016,65.430,-6.836,0
1528297616.875,25.879,46.875,41.016,39.551,72.754,0
1528297616.879,6.348,49.805,36.621,25.391,132.812,0
1528297616.856,49.316,52.246,33.691,41.992,46.387,0
1528297616.860,93.750,57.129,34.180,58.594,11.719,0
1528297616.864,57.617,46.875,37.109,43.945,60.547,0
1528297616.868,8.301,39.062,35.645,21.973,0.488,0
1528297616.872,32.227,52.734,32.227,31.738,-13.184,0
1528297616.876,85.938,60.059,36.133,56.641,35.156,0
1528297616.880,66.895,61.523,37.598,48.340,31.738,0
1528297616.883,10.742,55.176,30.762,30.273,-2.441,0
1528297616.887,13.672,56.152,31.250,34.668,36.621,0
1528297616.891,71.289,62.500,38.086,58.105,47.852,0
1528297616.895,73.730,59.570,38.086,58.105,61.523,0
1528297616.899,18.555,54.688,37.109,29.297,62.500,0
1528297616.916,-4.395,52.246,38.086,21.484,37.598,0
1528297616.920,38.086,50.293,37.598,46.387,27.344,0
1528297616.924,64.453,53.223,37.109,60.059,49.805,0
1528297616.928,15.137,52.246,39.062,41.016,35.645,0
1528297616.932,-20.508,50.781,41.016,19.043,-4.883,0
1528297616.936,22.461,52.734,36.621,38.574,29.785,0
1528297616.940,59.570,51.270,33.203,61.035,65.918,0
1528297616.943,32.227,51.270,36.621,41.016,67.871,0
1528297616.947,0.977,51.270,38.574,16.602,57.129,0
1528297616.951,16.113,49.805,37.109,26.855,45.410,0
1528297616.955,67.383,51.758,35.645,53.711,87.891,0
1528297616.959,67.871,50.781,35.156,44.922,60.547,0
1528297616.955,18.555,46.875,36.621,19.531,-94.727,0
1528297616.959,0.488,45.410,38.086,19.531,-28.809,0
