timestamps,TP9,AF7,AF8,TP10,Right AUX,Marker0
1528295662.518,9.277,31.738,31.250,26.855,-25.391,2
1528295662.522,56.641,26.367,27.832,45.410,45.410,0
1528295662.526,49.316,26.367,32.715,41.504,39.062,0
1528295662.530,7.324,27.344,34.668,19.531,47.852,0
1528295662.534,0.000,28.809,33.691,13.184,1.953,0
1528295662.538,39.551,27.832,34.180,35.156,-59.082,0
1528295662.542,59.570,25.391,33.203,43.945,10.254,0
1528295662.545,20.996,28.320,32.227,22.461,34.668,0
1528295662.549,5.371,32.715,33.691,17.090,-29.297,0
1528295662.553,45.410,29.785,30.762,37.598,-11.230,0
1528295662.557,76.660,28.809,26.855,55.664,12.207,0
1528295662.561,48.828,32.715,32.715,36.133,-11.230,0
1528295662.579,17.578,34.180,36.133,10.742,-25.391,0
1528295662.583,33.691,32.715,26.855,23.438,23.926,0
1528295662.587,64.941,28.809,21.484,48.340,62.500,0
1528295662.591,57.129,27.344,31.738,39.551,20.508,0
1528295662.595,20.020,27.832,38.086,18.066,28.320,0
1528295662.599,9.277,30.762,33.203,25.879,100.098,0
1528295662.603,43.945,31.738,28.809,53.223,133.301,0
1528295662.606,53.223,30.762,29.785,44.434,95.703,0
1528295662.610,14.160,33.691,32.227,12.207,54.688,0
1528295662.614,-6.836,33.203,28.809,6.348,18.555,0
1528295662.618,33.691,31.250,24.414,36.621,-24.414,0
1528295662.622,69.336,35.156,30.762,51.758,-38.574,0
1528295662.618,39.062,37.598,32.715,27.344,4.883,0
1528295662.622,0.488,33.203,31.250,14.648,18.555,0
1528295662.626,18.555,26.855,30.273,31.738,-13.184,0
1528295662.630,55.664,29.297,27.344,48.340,-1.953,0
1528295662.634,34.180,33.203,30.762,36.621,4.883,0
1528295662.638,8.301,33.203,34.668,16.113,-26.367,0
1528295662.642,27.832,35.156,31.738,20.508,-33.203,0
1528295662.645,59.082,32.715,28.809,45.898,32.227,0
1528295662.649,52.246,32.715,30.273,43.945,89.355,0
1528295662.653,14.648,39.062,35.156,19.531,36.621,0
1528295662.657,15.137,37.109,36.133,16.113,-5.859,0
1528295662.661,50.293,25.879,32.227,41.504,6.836,0
1528295662.659,53.223,28.809,31.738,51.758,16.113,0
1528295662.663,22.949,37.109,29.785,26.367,66.895,0
1528295662.667,3.418,37.109,21.973,7.812,13.184,0
1528295662.671,37.109,36.621,22.461,30.273,-44.922,0
1528295662.675,70.801,36.133,25.879,49.805,62.988,0
1528295662.679,31.738,37.598,30.762,24.414,55.664,0
1528295662.683,-0.488,38.086,34.668,3.418,-23.438,0
1528295662.686,33.203,33.203,30.273,18.555,-28.320,0
1528295662.690,60.059,30.762,26.367,45.410,25.879,0
1528295662.694,32.227,29.297,28.320,32.227,65.918,0
1528295662.698,-5.859,26.367,29.785,-1.465,15.137,0
1528295662.702,-0.488,27.832,25.879,9.766,-13.184,0
1528295662.720,35.156,26.367,19.531,36.133,16.602,0
1528295662.724,32.227,25.879,20.508,27.344,43.457,0
1528295662.728,3.418,28.809,24.902,7.324,29.297,0
1528295662.732,-1.465,30.762,24.902,15.625,7.812,0
1528295662.736,38.574,28.320,20.020,34.668,65.918,0
1528295662.740,68.848,26.367,20.996,31.738,64.453,0
1528295662.744,34.180,29.785,28.320,13.184,-20.508,0
1528295662.747,-8.301,28.320,30.762,0.488,-7.812,0
1528295662.751,28.320,20.020,20.996,15.625,40.527,0
1528295662.755,55.664,21.484,20.996,32.227,39.551,0
1528295662.759,15.625,26.855,28.809,19.043,44.922,0
1528295662.763,-12.695,25.391,28.320,7.324,9.277,0
1528295662.759,20.996,24.902,32.227,20.020,15.137,0
1528295662.763,60.059,26.855,33.691,42.480,53.223,0
1528295662.767,32.715,30.762,35.156,37.109,60.547,0
1528295662.771,7.812,30.762,38.574,19.531,-5.371,0
1528295662.775,9.277,31.738,37.598,18.066,-7.324,0
1528295662.779,37.109,32.715,34.180,40.039,-24.414,0
1528295662.783,50.293,29.297,34.180,45.410,-36.133,0
1528295662.786,17.578,31.738,39.551,20.508,38.574,0
1528295662.790,-0.977,35.156,38.086,11.230,28.320,0
1528295662.794,35.156,31.738,33.691,36.133,45.410,0
1528295662.798,57.617,30.762,38.086,45.898,46.875,0
1528295662.802,19.531,30.762,42.480,24.414,35.156,0
1528295662.798,-0.977,29.297,41.504,16.113,-0.977,0
1528295662.802,30.762,28.809,37.598,32.227,1.465,0
1528295662.806,59.570,28.320,34.180,50.781,43.457,0
1528295662.810,45.898,33.203,40.039,40.039,5.371,0
1528295662.814,22.949,34.180,43.945,17.578,24.414,0
1528295662.818,22.949,34.180,38.574,25.391,13.184,0
1528295662.822,42.480,35.156,35.645,50.781,6.348,0
1528295662.825,31.738,36.621,38.574,41.504,49.805,0
1528295662.829,2.930,40.039,44.922,20.020,30.273,0
1528295662.833,11.719,33.691,44.922,23.438,-19.043,0
1528295662.837,51.758,26.367,37.598,42.480,37.598,0
1528295662.841,64.941,29.785,36.133,45.898,68.359,0
1528295662.858,27.832,34.668,41.504,30.762,-13.672,0
1528295662.862,12.207,35.645,42.969,26.855,-9.277,0
1528295662.866,59.082,33.203,34.668,46.387,28.320,0
1528295662.870,73.730,34.180,32.227,49.316,64.453,0
1528295662.874,27.832,36.133,37.598,24.902,25.391,0
1528295662.878,7.812,29.297,41.504,14.160,-15.137,0
1528295662.882,29.297,29.785,39.551,26.855,32.715,0
1528295662.885,55.664,32.715,31.738,48.828,49.805,0
1528295662.889,38.574,30.762,35.645,36.621,41.504,0
1528295662.893,7.324,33.203,42.969,14.160,58.105,0
1528295662.897,22.461,29.785,38.086,26.367,77.148,0
1528295662.901,54.688,25.391,32.715,48.340,79.102,0
1528295662.898,45.898,28.809,36.133,39.062,71.289,0
1528295662.902,13.184,33.203,42.480,17.578,62.500,0
1528295662.906,6.348,31.738,41.992,17.578,5.371,0
1528295662.910,52.246,30.762,34.180,43.945,-57.129,0
1528295662.914,68.848,32.227,37.598,50.781,62.500,0
1528295662.918,16.113,36.133,42.969,24.902,64.453,0
1528295662.922,0.000,37.598,41.016,20.508,-2.441,0
1528295662.925,46.387,33.203,37.598,46.387,95.703,0
1528295662.929,82.031,31.250,33.203,52.246,91.797,0
1528295662.933,41.504,35.645,37.598,30.273,-6.348,0
1528295662.937,3.906,33.691,41.992,12.695,5.859,0
1528295662.941,41.504,27.344,37.598,34.180,36.133,0
1528295662.938,80.078,28.320,33.203,58.105,79.590,0
1528295662.942,59.570,34.668,37.109,39.062,19.043,0
1528295662.946,17.578,41.016,41.016,24.414,-41.504,0
1528295662.950,25.879,39.551,38.574,31.250,1.953,0
1528295662.954,65.918,35.156,34.668,49.316,19.043,0
1528295662.958,63.477,33.691,39.062,49.805,27.832,0
1528295662.962,19.043,31.250,40.527,35.156,23.926,0
1528295662.965,8.301,30.273,33.203,23.926,20.508,0
1528295662.969,48.340,28.809,33.203,37.598,19.531,0
1528295662.973,63.965,25.391,37.598,48.340,23.438,0
1528295662.977,24.902,25.879,41.504,31.738,-8.789,0
1528295662.981,0.000,27.832,41.992,23.438,-31.738,0
1528295662.998,30.273,28.809,36.621,41.504,11.230,0
1528295663.002,70.801,30.273,33.203,52.734,27.832,0
1528295663.006,40.527,31.738,38.574,36.133,17.090,0
1528295663.010,8.301,31.738,42.969,22.461,-6.836,0
1528295663.014,28.320,26.855,41.992,40.527,30.762,0
1528295663.018,62.500,24.414,39.551,61.035,64.453,0
1528295663.022,50.781,27.344,40.039,50.293,68.359,0
1528295663.025,2.930,27.344,42.969,35.156,23.438,0
1528295663.029,8.789,30.273,41.016,33.203,-13.672,0
1528295663.033,56.152,33.203,34.180,43.945,97.168,0
1528295663.037,58.105,35.156,33.691,39.551,114.258,0
1528295663.041,18.066,39.062,35.156,19.043,70.801,0
1528295663.039,7.324,35.645,32.715,11.230,38.086,0
1528295663.043,52.734,29.785,30.273,35.645,46.875,0
1528295663.047,74.219,30.273,30.762,51.270,118.652,0
1528295663.051,32.227,31.738,34.180,36.133,15.625,0
1528295663.055,-1.465,32.715,35.156,21.484,-5.859,0
1528295663.059,21.973,29.297,30.762,35.156,73.730,0
1528295663.063,64.453,31.250,27.832,47.363,45.898,0
1528295663.066,35.156,38.086,33.203,26.855,17.578,0
1528295663.070,0.488,37.598,39.551,7.812,-33.203,0
1528295663.074,22.461,37.109,33.691,15.137,-61.523,0
1528295663.078,55.664,37.109,25.391,28.809,19.531,0
1528295663.082,47.852,38.574,32.715,29.785,35.645,0
1528295663.079,13.672,40.039,41.504,18.555,20.020,0
1528295663.083,14.648,40.527,38.574,19.531,-5.371,0
1528295663.087,51.270,37.598,33.691,47.363,16.113,0
1528295663.091,56.152,34.668,33.691,48.828,39.062,0
1528295663.095,19.531,39.062,36.621,22.949,-40.527,0
1528295663.099,9.277,37.598,36.621,20.020,-19.531,0
1528295663.103,53.711,32.227,31.738,45.410,46.387,0
1528295663.106,72.754,32.227,30.762,50.781,74.219,0
1528295663.110,25.879,34.668,35.156,30.273,71.289,0
1528295663.114,3.418,31.250,35.645,14.648,30.762,0
1528295663.118,33.691,29.785,27.344,29.297,30.762,0
1528295663.122,54.688,28.809,23.926,57.617,76.172,0
1528295663.138,33.691,30.273,30.273,45.898,67.871,0
1528295663.142,8.789,30.762,32.715,15.625,76.172,0
1528295663.146,30.762,29.785,28.809,17.578,58.105,0
1528295663.150,69.824,28.809,24.902,41.504,26.367,0
1528295663.154,55.664,26.855,29.785,44.922,55.176,0
1528295663.158,21.973,27.344,34.180,22.949,24.414,0
1528295663.162,10.742,30.762,34.180,9.277,0.977,0
1528295663.165,42.969,28.320,28.320,33.691,18.555,0
1528295663.169,60.547,28.809,21.973,43.457,7.812,0
1528295663.173,18.555,32.227,26.855,15.625,-41.992,0
1528295663.177,-9.277,33.691,30.762,4.883,-8.301,0
1528295663.181,33.691,30.273,26.367,26.855,12.207,0
1528295663.178,71.289,25.391,25.391,43.457,7.324,0
1528295663.182,36.133,28.809,31.738,22.949,0.977,0
1528295663.186,3.906,28.320,35.156,8.789,-10.742,0
1528295663.190,26.367,24.414,31.738,32.715,-9.766,0
1528295663.194,58.594,27.344,27.832,48.340,38.086,0
1528295663.198,31.250,31.250,31.250,30.273,69.824,0
1528295663.202,-9.277,30.273,30.762,12.207,39.551,0
1528295663.205,12.695,27.344,26.367,18.555,20.020,0
1528295663.209,58.105,20.508,28.320,53.223,-2.441,0
1528295663.213,44.922,27.832,37.109,45.410,23.926,0
1528295663.217,9.277,40.039,41.016,7.812,34.668,0
1528295663.221,10.254,36.133,36.621,15.137,15.137,0
1528295663.218,41.016,32.227,32.227,38.574,-17.578,0
1528295663.222,60.547,36.133,34.180,38.574,17.090,0
1528295663.226,24.902,39.551,37.109,20.020,-0.488,0
1528295663.230,4.883,36.621,33.203,11.230,-3.906,0
1528295663.234,37.109,30.762,29.785,29.785,13.184,0
1528295663.238,55.176,32.227,32.715,48.828,-15.137,0
1528295663.242,33.203,38.574,37.109,36.133,-31.250,0
1528295663.245,5.859,41.504,36.133,14.648,-17.090,0
1528295663.249,21.973,40.039,31.738,30.273,-16.113,0
1528295663.253,52.734,35.645,26.855,45.898,-4.883,0
1528295663.257,26.855,36.621,25.879,19.043,63.965,0
1528295663.261,-13.184,39.551,27.832,-9.766,25.391,0
1528295663.279,-13.672,40.527,32.227,-9.766,56.152,0
1528295663.283,27.344,45.898,28.809,12.207,131.348,0
1528295663.287,7.324,49.805,22.949,-12.695,122.559,0
1528295663.291,-62.012,51.758,26.855,-56.152,62.012,0
1528295663.295,-78.125,56.152,27.832,-64.453,26.855,0
1528295663.299,-42.480,54.199,20.996,-48.340,97.656,0
1528295663.303,-40.039,55.176,23.438,-51.758,71.289,0
1528295663.306,-84.473,58.594,30.273,-89.355,-25.391,0
1528295663.310,-121.094,58.594,28.320,-105.957,8.789,0
1528295663.314,-91.309,57.129,23.438,-93.262,5.859,0
1528295663.318,-66.406,58.594,21.484,-92.285,35.645,0
1528295663.322,-104.980,58.105,27.344,-110.352,68.359,0
1528295663.319,-126.953,57.617,35.156,-121.094,25.391,0
1528295663.323,-99.121,54.688,32.715,-100.098,62.012,0
1528295663.327,-63.477,46.875,30.762,-72.754,146.484,0
1528295663.331,-72.266,46.387,34.180,-74.707,109.863,0
1528295663.335,-92.285,46.875,37.109,-83.984,-6.348,0
1528295663.339,-70.312,41.016,36.133,-65.430,-25.879,0
1528295663.343,-5.371,34.180,31.738,-27.344,39.062,0
1528295663.346,11.719,34.668,32.715,-12.207,66.895,0
1528295663.350,-26.367,39.062,35.645,-17.090,92.285,0
1528295663.354,-33.691,39.062,36.621,-20.508,48.828,0
1528295663.358,12.695,30.273,32.227,0.977,-11.719,0
1528295663.362,40.527,22.949,28.809,20.996,80.078,0
1528295663.359,15.137,23.438,31.250,13.184,51.758,0
1528295663.363,-1.465,23.926,31.738,18.066,41.504,0
1528295663.367,32.227,20.508,25.391,40.039,44.922,0
1528295663.371,81.055,21.484,20.996,62.500,29.785,0
1528295663.375,62.012,27.832,26.855,49.316,21.484,0
1528295663.379,29.297,31.250,29.297,33.691,6.348,0
1528295663.383,55.664,28.320,25.879,55.664,11.719,0
1528295663.386,85.449,23.926,26.367,74.219,-8.301,0
1528295663.390,72.754,21.484,30.762,72.266,-17.090,0
1528295663.394,46.875,20.020,32.715,58.105,20.996,0
1528295663.398,48.340,20.996,32.715,54.199,7.324,0
1528295663.402,81.543,20.020,29.785,80.566,32.715,0
1528295663.418,90.820,22.461,32.227,85.938,70.801,0
1528295663.422,58.105,25.879,37.598,59.570,-17.090,0
1528295663.426,39.062,23.438,32.715,50.293,-40.039,0
1528295663.430,83.008,21.973,23.926,73.242,38.574,0
1528295663.434,107.910,20.996,24.902,84.961,29.785,0
1528295663.438,58.594,21.973,30.762,66.406,21.973,0
1528295663.442,34.180,21.484,28.809,50.781,56.152,0
1528295663.445,74.707,15.625,24.414,59.570,-10.742,0
1528295663.449,101.562,13.672,24.414,75.195,35.156,0
1528295663.453,76.172,19.531,24.902,74.219,121.582,0
1528295663.457,35.156,24.902,30.273,64.941,52.246,0
1528295663.461,41.992,24.414,31.250,63.965,19.043,0
1528295663.458,95.215,22.949,24.902,76.660,56.152,0
1528295663.462,99.609,25.879,24.414,79.590,12.695,0
1528295663.466,53.223,26.855,26.367,60.059,6.836,0
1528295663.470,44.922,23.926,29.785,48.340,-17.090,0
1528295663.474,89.355,20.508,26.855,73.730,-15.137,0
1528295663.478,94.727,21.973,27.344,85.449,56.152,0
1528295663.482,53.223,27.832,32.715,62.988,36.621,0
1528295663.485,30.762,30.762,32.227,51.270,-11.230,0
1528295663.489,61.035,28.809,28.809,73.242,52.734,0
1528295663.493,93.750,31.250,31.250,87.891,76.172,0
1528295663.497,69.336,33.691,36.621,56.152,24.902,0
1528295663.501,33.203,30.762,37.109,41.504,9.277,0
1528295663.498,52.246,27.832,32.227,56.641,-0.977,0
1528295663.502,90.820,27.344,28.320,71.777,28.320,0
1528295663.506,69.824,26.367,33.691,63.477,34.180,0
1528295663.510,28.809,28.320,36.133,43.457,0.488,0
1528295663.514,30.762,30.273,33.203,46.875,11.719,0
1528295663.518,71.289,29.297,28.809,69.824,35.156,0
1528295663.522,80.078,29.785,30.273,68.848,47.363,0
1528295663.525,40.039,32.227,28.320,39.551,11.230,0
1528295663.529,29.785,29.785,24.902,28.809,-5.859,0
1528295663.533,83.984,24.902,27.344,54.199,17.578,0
1528295663.537,84.961,25.391,31.738,62.988,89.844,0
1528295663.541,41.992,31.250,38.086,46.387,40.527,0
1528295663.558,29.785,31.250,37.109,46.387,3.906,0
1528295663.562,47.363,26.367,30.762,59.082,32.227,0
1528295663.566,69.336,24.902,27.832,71.777,15.625,0
1528295663.570,41.992,27.344,30.762,59.082,46.875,0
1528295663.574,15.625,31.738,33.203,35.156,57.129,0
1528295663.578,33.203,30.762,30.762,46.875,-9.766,0
1528295663.582,67.871,25.391,26.855,62.012,39.551,0
1528295663.585,65.430,28.809,28.320,52.246,58.105,0
1528295663.589,28.809,31.250,31.738,32.715,-75.684,0
1528295663.593,31.250,27.832,30.762,32.715,-50.781,0
1528295663.597,77.637,24.414,31.250,59.570,46.875,0
1528295663.601,89.355,23.926,33.691,65.918,10.254,0
1528295663.598,42.480,26.367,34.668,46.875,25.879,0
1528295663.602,13.672,27.832,31.738,40.039,3.906,0
1528295663.606,54.688,28.809,26.367,59.082,31.250,0
1528295663.610,78.125,28.809,25.391,64.453,101.562,0
1528295663.614,42.480,31.738,29.785,40.039,63.965,0
1528295663.618,16.113,31.738,33.203,27.832,20.996,0
1528295663.622,47.852,28.320,30.273,46.387,65.918,0
1528295663.625,79.102,23.438,26.855,57.617,64.941,0
1528295663.629,49.805,24.902,30.273,43.457,29.297,0
1528295663.633,21.973,33.203,33.691,28.809,56.152,0
1528295663.637,45.410,31.250,31.250,40.527,21.484,0
1528295663.641,90.820,28.809,27.344,54.688,49.316,0
1528295663.659,71.289,29.297,30.273,47.852,73.242,0
1528295663.663,19.043,26.855,37.598,36.621,-20.996,0
1528295663.667,15.137,24.414,36.621,37.109,8.789,0
1528295663.671,52.734,20.508,33.691,55.664,96.680,0
1528295663.675,73.242,20.996,37.109,55.664,87.402,0
1528295663.679,37.598,31.250,42.480,41.992,31.250,0
1528295663.683,13.672,30.273,41.992,34.180,-34.668,0
1528295663.686,49.805,24.414,37.598,44.922,-34.180,0
1528295663.690,71.289,28.809,33.203,54.199,-5.371,0
1528295663.694,31.250,33.203,34.668,34.668,6.348,0
1528295663.698,5.859,32.715,36.133,20.996,38.574,0
1528295663.702,33.203,29.785,33.691,39.062,36.621,0
1528295663.699,63.965,29.785,30.762,60.059,70.801,0
1528295663.703,41.992,33.691,32.715,41.992,83.008,0
1528295663.707,6.836,34.180,40.039,20.996,28.809,0
1528295663.711,31.738,32.227,37.109,29.297,44.922,0
1528295663.715,59.570,33.203,30.273,43.457,42.969,0
1528295663.719,31.738,34.668,32.715,37.109,0.000,0
1528295663.723,3.906,36.133,36.621,26.855,5.371,0
1528295663.726,12.207,34.668,34.668,27.832,5.371,0
1528295663.730,53.223,30.762,30.273,42.480,26.855,0
1528295663.734,72.266,33.203,27.344,43.945,55.664,0
1528295663.738,36.133,41.504,32.227,29.785,58.594,0
1528295663.742,13.184,41.016,31.738,18.555,49.805,0
1528295663.737,44.922,37.598,23.926,34.668,79.102,0
1528295663.741,66.895,37.109,27.832,59.082,92.285,0
1528295663.745,41.016,34.668,35.156,41.504,29.785,0
1528295663.749,8.301,29.297,36.621,20.020,-1.953,0
1528295663.753,29.297,25.391,33.691,28.809,45.410,0
1528295663.757,68.848,26.367,30.273,54.688,86.426,0
1528295663.761,40.527,27.832,34.668,37.598,35.156,0
1528295663.764,2.441,30.762,34.668,10.742,-29.297,0
1528295663.768,17.578,31.738,25.391,25.879,-7.812,0
1528295663.772,58.105,29.297,19.531,43.945,13.184,0
1528295663.776,50.293,27.832,22.461,40.039,46.387,0
1528295663.780,19.043,32.227,28.320,23.438,53.711,0
1528295663.798,24.414,35.156,30.762,19.531,23.438,0
1528295663.802,51.270,27.344,29.297,37.109,-1.465,0
1528295663.806,59.570,24.902,29.297,49.316,8.301,0
1528295663.810,24.414,32.227,30.762,26.367,36.133,0
1528295663.814,7.324,34.180,28.320,21.973,10.254,0
1528295663.818,43.945,31.250,25.879,41.016,34.668,0
1528295663.822,75.195,29.297,29.297,44.434,91.309,0
1528295663.825,53.223,34.668,33.203,31.738,31.738,0
1528295663.829,26.367,36.621,34.180,15.625,16.602,0
1528295663.833,38.086,34.180,34.180,27.832,25.879,0
1528295663.837,72.754,32.227,31.738,50.293,35.645,0
1528295663.841,45.898,33.691,35.645,36.133,53.711,0
1528295663.838,-1.953,36.621,39.551,18.555,54.199,0
1528295663.842,16.113,34.668,32.715,20.020,51.270,0
1528295663.846,62.988,31.250,28.320,24.902,30.762,0
1528295663.850,53.711,31.250,31.250,32.227,36.621,0
1528295663.854,3.906,34.180,34.668,17.578,19.531,0
1528295663.858,-3.906,34.668,38.086,7.324,8.789,0
1528295663.862,34.668,29.297,28.809,30.762,59.082,0
1528295663.865,51.758,26.367,21.973,39.062,48.340,0
1528295663.869,30.762,31.738,33.691,20.996,-36.133,0
1528295663.873,9.766,35.156,39.062,11.719,-11.719,0
1528295663.877,28.809,37.109,36.133,25.391,12.695,0
1528295663.881,69.336,38.086,32.227,44.434,42.480,0
1528295663.878,41.992,41.016,35.156,39.062,-5.371,0
1528295663.882,-6.348,41.016,38.574,20.508,-83.984,0
1528295663.886,14.160,32.227,33.203,25.879,-32.715,0
1528295663.890,60.059,32.227,30.273,47.363,18.555,0
1528295663.894,47.852,35.156,33.691,39.062,27.832,0
1528295663.898,5.859,32.715,34.668,13.184,17.578,0
1528295663.902,3.418,28.320,30.762,13.672,-19.531,0
1528295663.905,58.105,26.855,22.949,36.133,-3.418,0
1528295663.909,75.195,33.203,26.855,41.504,62.012,0
1528295663.913,16.113,37.598,35.156,16.602,58.105,0
1528295663.917,-3.418,34.180,32.227,3.906,55.176,0
1528295663.921,41.016,30.762,28.320,36.133,82.031,0
1528295663.938,58.105,28.320,29.297,46.875,69.824,0
1528295663.942,27.344,31.738,31.738,20.508,84.473,0
1528295663.946,11.230,33.691,32.227,17.090,88.379,0
1528295663.950,41.016,30.762,28.809,38.574,82.031,0
1528295663.954,67.871,33.691,29.785,61.523,52.734,0
1528295663.958,47.363,36.621,33.691,46.875,9.766,0
1528295663.962,14.648,35.645,32.715,25.391,20.996,0
1528295663.965,19.531,34.668,25.879,24.414,7.812,0
1528295663.969,63.477,30.273,19.531,38.574,61.523,0
1528295663.973,47.852,28.809,25.879,39.062,44.434,0
1528295663.977,-2.441,29.297,32.715,18.555,43.945,0
1528295663.981,-0.488,26.367,32.227,22.461,72.266,0
1528295663.979,45.898,24.902,27.832,42.480,56.641,0
1528295663.983,55.664,29.297,31.250,48.828,40.527,0
1528295663.987,15.625,32.227,38.574,35.645,23.926,0
1528295663.991,0.977,32.227,37.109,22.461,-23.438,0
1528295663.995,33.203,31.738,32.227,36.133,-28.320,0
1528295663.999,62.500,31.250,34.668,50.293,-4.395,0
1528295664.003,26.367,31.738,39.062,25.879,-43.457,0
1528295664.006,-5.859,33.691,37.598,14.648,-54.199,0
1528295664.010,30.273,32.715,31.738,37.598,14.160,0
1528295664.014,64.941,27.832,26.855,54.688,82.031,0
1528295664.018,38.574,32.227,32.227,36.621,101.562,0
1528295664.022,9.766,40.527,35.156,14.160,35.645,0
1528295664.019,28.809,39.062,32.715,31.250,9.277,0
1528295664.023,66.406,38.574,30.273,60.547,-7.324,0
1528295664.027,58.594,40.527,30.273,48.828,-27.832,0
1528295664.031,17.578,41.992,38.086,23.438,-2.930,0
1528295664.035,4.395,39.062,38.086,19.043,-19.531,0
1528295664.039,40.527,31.738,29.785,37.598,30.762,0
1528295664.043,54.199,30.273,27.832,48.828,61.035,0
1528295664.046,15.137,35.645,31.738,31.738,-4.883,0
1528295664.050,-2.441,39.551,35.156,20.020,-36.133,0
1528295664.054,30.273,36.133,27.344,23.926,21.973,0
1528295664.058,51.270,34.180,24.414,41.504,20.020,0
1528295664.062,35.645,34.668,34.668,32.227,-2.930,0
1528295664.079,12.695,31.250,37.109,15.625,28.320,0
1528295664.083,18.066,27.832,32.715,26.855,46.387,0
1528295664.087,60.059,27.344,30.273,41.992,29.785,0
1528295664.091,38.574,32.227,30.762,34.180,-21.484,0
1528295664.095,0.977,36.621,31.738,16.602,3.906,0
1528295664.099,22.949,34.668,33.203,26.855,18.066,0
1528295664.103,51.270,31.738,33.203,52.246,15.137,0
1528295664.106,46.387,33.203,31.250,43.945,43.945,0
1528295664.110,16.602,33.203,27.832,24.902,34.180,0
1528295664.114,7.812,28.809,29.785,26.367,20.508,0
1528295664.118,54.688,23.926,26.855,43.945,12.695,0
1528295664.122,75.684,25.879,23.926,58.105,46.875,0
1528295664.119,32.715,30.762,30.762,37.598,39.062,0
1528295664.123,8.301,31.250,33.203,18.066,2.930,0
1528295664.127,28.809,28.809,29.785,35.645,-19.043,0
1528295664.131,51.270,23.926,29.785,48.828,43.945,0
1528295664.135,34.668,25.879,37.109,37.109,47.363,0
1528295664.139,8.789,29.785,39.062,23.926,-20.508,0
1528295664.143,28.809,29.785,32.715,33.203,-15.137,0
1528295664.146,68.359,28.809,28.320,50.781,-14.648,0
1528295664.150,53.711,28.320,31.250,40.039,18.555,0
1528295664.154,14.648,28.320,40.527,25.391,0.488,0
1528295664.158,16.602,27.344,34.180,26.855,6.836,0
1528295664.162,61.035,25.879,22.461,50.293,77.148,0
1528295664.158,67.871,28.320,31.250,54.688,73.730,0
1528295664.162,26.855,31.250,37.109,34.668,58.105,0
1528295664.166,21.973,31.738,36.621,35.645,44.434,0
1528295664.170,56.152,30.762,35.156,44.922,11.719,0
1528295664.174,65.430,27.832,31.250,50.781,-2.441,0
1528295664.178,34.180,28.809,31.250,32.715,16.602,0
1528295664.182,-1.465,29.785,34.668,18.555,8.301,0
1528295664.185,23.926,26.855,28.809,39.062,24.902,0
1528295664.189,63.965,29.785,25.391,58.594,72.754,0
1528295664.193,42.969,33.691,30.273,41.992,53.223,0
1528295664.197,7.812,36.133,33.691,14.648,56.152,0
1528295664.201,17.578,36.621,34.668,26.855,24.414,0
1528295664.218,51.270,31.738,30.273,49.805,80.078,0
1528295664.222,51.758,31.250,32.227,44.922,83.984,0
1528295664.226,20.996,36.133,36.621,27.344,-1.953,0
1528295664.230,14.648,37.109,37.598,21.484,-30.273,0
1528295664.234,50.781,34.668,34.180,39.062,16.602,0
1528295664.238,44.434,34.180,30.762,38.086,30.762,0
1528295664.242,-3.906,38.086,36.133,17.090,16.113,0
1528295664.245,-16.113,36.621,35.156,4.883,2.930,0
1528295664.249,15.625,30.762,24.414,21.973,23.926,0
1528295664.253,49.316,30.762,25.391,45.898,19.043,0
1528295664.257,35.156,35.645,31.250,26.855,10.254,0
1528295664.261,10.254,36.621,35.156,4.395,33.203,0
1528295664.258,29.297,35.156,32.715,21.973,-12.695,0
1528295664.262,64.453,37.598,22.949,49.316,20.508,0
1528295664.266,58.105,39.062,24.414,39.551,45.410,0
1528295664.270,13.184,39.551,32.227,18.555,5.859,0
1528295664.274,13.184,38.086,35.156,29.785,21.484,0
1528295664.278,59.570,33.691,32.227,51.758,5.371,0
1528295664.282,46.387,33.691,27.344,40.039,23.926,0
1528295664.285,8.789,34.668,31.250,19.531,70.801,0
1528295664.289,2.441,30.762,30.762,19.531,37.109,0
1528295664.293,36.133,27.344,27.832,35.156,19.043,0
1528295664.297,50.781,26.367,29.297,33.203,33.691,0
1528295664.301,18.066,28.809,31.738,13.672,-13.672,0
1528295664.298,4.395,33.691,33.691,9.766,-1.953,0
1528295664.302,32.227,30.762,32.227,29.297,44.922,0
1528295664.306,52.734,28.320,28.809,41.992,15.625,0
1528295664.310,32.227,29.785,31.738,24.902,9.277,0
1528295664.314,0.000,29.785,36.133,3.906,20.508,0
1528295664.318,14.648,31.250,31.738,22.461,-9.277,0
1528295664.322,60.059,28.320,26.367,48.828,-29.297,0
1528295664.325,49.316,28.809,30.762,41.016,-14.160,0
1528295664.329,3.418,29.785,38.574,18.066,-19.531,0
1528295664.333,11.230,26.855,35.645,17.090,4.883,0
1528295664.337,60.547,27.344,31.250,48.828,13.184,0
1528295664.341,68.359,33.203,34.668,44.922,-33.203,0
1528295664.359,17.578,35.156,39.062,14.160,-57.129,0
1528295664.363,-3.418,34.180,38.086,13.184,10.742,0
1528295664.367,43.945,33.203,31.250,38.574,64.941,0
1528295664.371,58.594,30.273,34.180,53.223,47.363,0
1528295664.375,20.996,32.715,41.504,31.738,46.387,0
1528295664.379,1.953,36.621,39.062,15.137,30.762,0
1528295664.383,26.855,30.762,36.621,36.133,14.648,0
1528295664.386,62.012,25.391,34.668,48.828,84.961,0
1528295664.390,44.922,27.832,32.227,25.879,63.477,0
1528295664.394,8.789,32.715,33.203,8.789,27.344,0
1528295664.398,27.832,31.250,34.180,23.438,29.785,0
1528295664.402,69.336,28.809,33.691,40.527,18.066,0
1528295664.397,58.594,35.156,34.668,33.691,68.359,0
1528295664.401,18.555,36.621,36.621,20.508,62.500,0
1528295664.405,18.066,31.738,37.598,21.484,15.137,0
1528295664.409,60.547,27.832,30.762,43.945,-3.418,0
1528295664.413,63.477,29.785,28.809,53.223,33.691,0
1528295664.417,18.066,33.203,33.203,30.762,22.949,0
1528295664.421,3.418,32.227,35.156,12.207,-2.930,0
1528295664.424,50.781,31.250,27.344,38.086,43.945,0
1528295664.428,70.801,33.203,25.391,58.594,20.508,0
1528295664.432,19.531,35.645,32.715,22.949,-7.324,0
1528295664.436,6.836,37.109,32.715,0.977,-0.488,0
1528295664.440,49.316,33.691,26.855,26.855,39.551,0
1528295664.439,66.895,27.832,26.367,49.805,126.465,0
1528295664.443,48.340,32.227,28.809,30.762,40.039,0
1528295664.447,13.672,36.133,33.691,15.137,-28.320,0
1528295664.451,12.207,33.691,33.203,32.227,52.734,0
1528295664.455,59.082,30.762,32.715,46.875,68.848,0
1528295664.459,58.105,31.250,36.621,40.039,46.875,0
1528295664.463,12.695,34.180,37.109,16.602,60.547,0
1528295664.466,2.441,32.715,36.133,14.160,25.879,0
1528295664.470,42.969,25.879,33.691,38.086,20.020,0
1528295664.474,63.965,22.949,30.273,45.898,91.309,0
1528295664.478,24.902,27.832,35.156,27.832,73.242,0
1528295664.482,-0.977,26.367,38.086,11.719,46.875,0
1528295664.499,32.715,20.996,30.762,26.855,43.457,0
1528295664.503,59.570,21.484,24.902,39.062,70.801,0
1528295664.507,24.902,27.344,33.691,27.832,83.008,0
1528295664.511,-4.395,28.809,39.062,17.578,82.520,0
1528295664.515,18.066,23.926,35.156,22.949,58.105,0
1528295664.519,48.828,20.020,35.645,42.480,-6.348,0
1528295664.523,37.598,22.949,40.527,25.391,37.109,0
1528295664.526,9.277,28.320,38.574,-1.465,79.102,0
1528295664.530,18.066,26.367,33.691,16.113,31.738,0
1528295664.534,48.828,23.926,28.809,49.805,25.391,0
1528295664.538,50.781,28.809,28.809,45.898,-3.906,0
1528295664.542,22.461,31.250,35.645,26.855,-44.434,0
1528295664.539,14.648,27.832,35.156,21.484,12.695,0
1528295664.543,59.570,26.367,28.809,32.715,73.730,0
1528295664.547,73.730,27.832,27.832,47.363,53.223,0
1528295664.551,28.809,31.250,31.738,30.273,-15.625,0
1528295664.555,14.648,29.297,32.227,18.066,-12.207,0
1528295664.559,50.781,27.344,29.785,43.457,2.441,0
1528295664.563,67.871,30.273,30.273,62.988,-8.789,0
1528295664.566,30.762,30.762,34.668,43.945,0.000,0
1528295664.570,4.395,30.762,39.062,32.715,-13.184,0
1528295664.574,25.879,32.227,38.574,48.340,-4.395,0
1528295664.578,61.523,30.273,33.203,58.105,45.410,0
1528295664.582,50.781,32.715,27.344,44.434,67.383,0
1528295664.579,8.301,36.621,29.785,18.555,6.836,0
1528295664.583,15.137,30.273,31.250,25.391,-15.625,0
1528295664.587,65.430,23.438,27.344,56.641,19.531,0
1528295664.591,59.570,27.832,30.273,52.734,2.930,0
1528295664.595,24.902,35.645,35.156,31.738,27.344,0
1528295664.599,14.648,38.086,38.574,31.738,53.223,0
1528295664.603,41.504,32.227,37.109,57.617,44.434,0
1528295664.606,62.012,31.738,34.180,62.988,40.039,0
1528295664.610,27.344,33.691,32.715,27.344,64.453,0
1528295664.614,7.324,26.855,30.762,13.672,35.645,0
1528295664.618,39.551,20.508,29.297,38.086,29.297,0
1528295664.622,71.777,25.879,26.855,65.918,66.406,0
1528295664.639,45.898,34.668,30.273,56.641,37.598,0
1528295664.643,20.508,36.621,32.227,27.832,20.020,0
1528295664.647,40.039,34.180,26.367,28.809,-4.883,0
1528295664.651,67.871,33.203,21.973,49.316,0.488,0
1528295664.655,56.152,35.156,24.414,39.551,18.555,0
1528295664.659,16.113,39.062,27.344,15.137,54.688,0
1528295664.663,8.789,39.062,25.391,9.277,81.055,0
1528295664.666,51.270,36.133,21.484,27.344,46.875,0
1528295664.670,55.664,40.039,22.461,33.691,57.129,0
1528295664.674,5.859,37.109,23.926,13.184,43.945,0
1528295664.678,-12.695,33.691,27.344,9.766,-41.992,0
1528295664.682,29.785,36.621,32.227,26.367,3.906,0
1528295664.679,59.570,38.086,33.203,27.832,46.387,0
1528295664.683,25.879,39.062,33.203,12.695,9.766,0
1528295664.687,-14.160,36.621,32.715,3.906,-25.879,0
1528295664.691,8.789,34.668,29.785,16.113,-12.695,0
1528295664.695,47.852,29.297,23.926,37.598,36.133,0
1528295664.699,23.926,24.902,26.855,26.855,70.801,0
1528295664.703,-3.418,29.297,31.738,11.719,80.078,0
1528295664.706,20.996,30.762,30.762,22.949,59.082,0
1528295664.710,65.918,26.367,28.320,39.551,70.312,0
1528295664.714,44.922,27.832,29.785,32.715,43.945,0
1528295664.718,4.395,34.180,28.809,20.996,47.852,0
1528295664.722,22.949,34.668,23.926,25.879,59.570,0
1528295664.719,63.965,31.738,20.020,41.016,14.160,0
1528295664.723,62.500,30.273,22.949,42.480,21.973,0
1528295664.727,24.902,34.180,26.855,20.996,31.738,0
1528295664.731,0.977,32.715,26.855,11.230,40.527,0
1528295664.735,35.156,27.832,25.879,25.391,51.270,0
1528295664.739,61.035,29.297,24.902,35.156,74.219,0
1528295664.743,27.344,35.645,29.785,26.855,32.227,0
1528295664.746,4.883,39.551,31.738,14.648,-21.973,0
1528295664.750,34.180,39.062,26.855,25.879,-34.668,0
1528295664.754,64.453,37.598,21.973,48.340,-4.395,0
1528295664.758,39.551,36.621,18.555,42.480,16.113,0
1528295664.762,8.789,37.598,22.949,22.949,-8.301,0
1528295664.779,4.883,36.621,31.738,25.879,-42.480,0
1528295664.783,35.645,32.715,32.227,42.480,-45.410,0
1528295664.787,44.434,32.227,32.227,33.691,17.578,0
1528295664.791,8.789,30.762,36.133,19.043,34.180,0
1528295664.795,-1.953,32.227,34.668,24.902,-16.602,0
1528295664.799,42.969,31.738,28.809,39.551,39.551,0
1528295664.803,55.664,32.715,29.785,39.551,68.848,0
1528295664.806,17.090,36.621,32.715,22.461,24.414,0
1528295664.810,-5.859,34.180,33.691,8.789,66.406,0
1528295664.814,35.645,31.738,34.180,30.762,85.938,0
1528295664.818,73.242,30.273,32.227,54.199,71.777,0
1528295664.822,38.086,28.320,29.297,31.738,32.715,0
1528295664.818,8.301,29.785,32.227,10.254,-13.184,0
1528295664.822,28.320,31.250,30.273,28.809,16.602,0
1528295664.826,55.664,29.785,25.879,48.340,36.621,0
1528295664.830,37.109,32.715,28.809,44.922,58.594,0
1528295664.834,0.488,35.645,36.133,17.090,8.789,0
1528295664.838,1.953,32.715,35.645,4.883,-24.414,0
1528295664.842,42.969,29.785,30.273,40.039,10.742,0
1528295664.845,36.621,27.344,31.250,40.039,3.906,0
1528295664.849,8.301,25.879,32.715,13.184,39.551,0
1528295664.853,6.348,26.855,33.691,9.277,38.574,0
1528295664.857,25.391,25.391,29.785,26.855,83.008,0
1528295664.861,41.992,22.949,24.414,39.062,127.441,0
1528295664.858,8.301,23.926,28.320,22.949,48.340,0
1528295664.862,-3.418,27.344,27.832,15.625,29.297,0
1528295664.866,31.250,26.855,23.438,35.156,80.078,0
1528295664.870,55.664,25.391,25.879,42.969,62.988,0
1528295664.874,28.809,27.344,31.250,34.180,50.781,0
1528295664.878,-3.418,30.273,32.715,17.578,36.133,0
1528295664.882,16.113,27.832,28.809,16.602,-5.371,0
1528295664.885,53.223,28.320,30.273,41.504,58.105,0
1528295664.889,45.410,30.762,32.715,33.203,62.012,0
1528295664.893,15.137,31.738,32.227,19.531,33.203,0
1528295664.897,26.855,32.715,34.668,30.762,34.668,0
1528295664.901,70.312,30.762,33.203,45.898,50.781,0
1528295664.918,58.105,28.809,30.762,51.758,73.242,0
1528295664.922,17.578,31.250,32.715,33.691,42.969,0
1528295664.926,12.695,32.227,33.691,24.414,-13.184,0
1528295664.930,47.852,28.809,28.809,48.828,-4.883,0
1528295664.934,65.918,29.297,27.344,50.781,70.801,0
1528295664.938,33.203,34.668,30.273,30.273,57.617,0
1528295664.942,9.766,35.645,28.320,22.461,-9.766,0
1528295664.945,43.945,31.250,24.414,35.645,-10.254,0
1528295664.949,71.289,27.832,21.973,46.875,27.344,0
1528295664.953,32.227,28.320,27.344,39.551,45.898,0
1528295664.957,6.836,29.785,35.156,26.367,-13.184,0
1528295664.961,27.344,33.691,32.227,27.832,-43.457,0
1528295664.959,59.082,32.715,24.902,57.617,26.367,0
1528295664.963,42.969,30.762,27.832,48.828,16.602,0
1528295664.967,12.207,37.109,33.203,18.555,-60.547,0
1528295664.971,17.090,37.598,31.250,23.926,-30.273,0
1528295664.975,55.176,31.250,26.855,42.480,36.133,0
1528295664.979,55.664,30.762,28.320,43.457,44.434,0
1528295664.983,22.949,32.715,31.738,22.949,57.129,0
1528295664.986,16.602,31.250,26.367,20.508,52.734,0
1528295664.990,36.621,28.809,22.461,45.410,-0.977,0
1528295664.994,64.941,29.785,27.344,47.363,48.340,0
1528295664.998,38.574,34.180,30.762,13.184,75.195,0
1528295665.002,1.465,37.598,27.832,-3.418,-5.859,0
1528295664.999,26.367,35.156,25.391,18.066,5.371,0
1528295665.003,58.105,31.738,25.879,42.480,83.496,0
1528295665.007,41.016,36.621,31.250,35.645,62.012,0
1528295665.011,13.184,37.109,33.691,15.137,46.875,0
1528295665.015,22.461,32.227,29.297,14.648,24.414,0
1528295665.019,56.152,32.227,26.855,38.574,-7.812,0
1528295665.023,58.105,29.785,27.832,33.691,-28.809,0
1528295665.026,24.902,29.785,29.297,3.906,-24.902,0
1528295665.030,8.789,33.203,31.250,5.859,-16.602,0
1528295665.034,43.457,30.273,28.809,36.621,13.184,0
1528295665.038,51.270,28.809,29.297,48.340,27.344,0
1528295665.042,24.414,32.715,34.668,31.250,0.488,0
1528295665.059,8.789,35.156,37.109,8.789,24.902,0
1528295665.063,29.785,31.250,28.809,24.414,2.930,0
1528295665.067,55.664,27.344,24.414,41.992,14.160,0
1528295665.071,28.809,33.203,29.785,22.949,70.312,0
1528295665.075,6.836,33.691,29.785,11.230,37.598,0
1528295665.079,26.367,26.855,29.297,20.020,59.082,0
1528295665.083,52.246,28.809,30.273,44.922,55.176,0
1528295665.086,37.598,31.738,31.738,44.922,53.711,0
1528295665.090,-1.465,32.227,33.691,21.484,66.406,0
1528295665.094,9.277,30.273,32.227,22.461,64.941,0
1528295665.098,53.223,29.297,32.715,48.828,78.613,0
1528295665.102,59.082,31.250,31.250,47.363,52.246,0
1528295665.099,26.855,32.227,33.203,25.391,12.207,0
1528295665.103,17.090,32.715,35.645,34.180,-22.461,0
1528295665.107,47.363,29.785,31.250,50.293,-22.949,0
1528295665.111,58.105,28.809,31.738,44.434,32.227,0
1528295665.115,22.949,29.297,34.668,25.879,54.688,0
1528295665.119,4.883,29.785,36.133,20.020,19.531,0
1528295665.123,43.457,28.809,29.297,34.668,32.715,0
1528295665.126,62.988,30.273,23.926,52.734,73.730,0
1528295665.130,28.320,36.621,34.668,40.527,45.898,0
1528295665.134,0.000,35.645,38.086,20.996,22.949,0
1528295665.138,25.879,26.367,28.809,32.715,-5.859,0
1528295665.142,56.152,25.879,29.297,46.387,11.230,0
1528295665.139,37.109,27.344,33.203,34.668,56.641,0
1528295665.143,7.812,24.414,32.715,22.949,-69.824,0
1528295665.147,12.207,23.926,31.250,28.809,-82.031,0
1528295665.151,43.457,24.414,28.320,37.598,-21.484,0
1528295665.155,44.922,25.879,30.762,33.691,0.488,0
1528295665.159,17.090,27.832,33.203,22.949,8.301,0
1528295665.163,13.184,29.297,29.297,12.695,12.207,0
1528295665.166,37.109,27.832,24.902,30.273,31.250,0
1528295665.170,46.387,24.902,24.902,39.062,32.227,0
1528295665.174,25.391,25.391,27.832,18.555,81.543,0
1528295665.178,10.742,27.832,28.809,10.254,18.555,0
1528295665.182,31.250,27.344,25.391,28.809,63.477,0
1528295665.198,50.293,25.879,23.926,46.387,111.816,0
1528295665.202,21.973,24.414,27.344,30.762,46.387,0
1528295665.206,4.883,27.832,30.762,18.066,30.273,0
1528295665.210,23.438,30.762,29.785,24.414,-0.977,0
1528295665.214,54.688,29.785,30.273,41.016,49.805,0
1528295665.218,51.270,32.715,34.180,39.551,42.480,0
1528295665.222,15.137,33.203,34.180,26.855,20.020,0
1528295665.225,13.184,27.344,27.832,27.344,-4.395,0
1528295665.229,57.129,26.367,24.902,40.039,-19.043,0
1528295665.233,62.012,26.855,30.762,41.992,31.738,0
1528295665.237,25.391,28.809,39.062,27.344,4.883,0
1528295665.241,17.090,30.273,36.621,26.855,-2.930,0
1528295665.238,37.109,25.391,27.344,41.992,17.090,0
1528295665.242,49.316,22.461,29.297,47.852,42.969,0
1528295665.246,21.973,24.902,34.180,32.227,73.242,0
1528295665.250,-0.488,27.832,35.156,21.484,24.414,0
1528295665.254,38.086,28.320,34.180,36.133,30.762,0
1528295665.258,65.430,26.367,31.250,52.246,102.539,0
1528295665.262,31.250,31.250,32.715,35.645,41.504,0
1528295665.265,10.254,35.156,31.738,14.648,-8.789,0
1528295665.269,25.879,33.691,26.855,32.227,48.828,0
1528295665.273,48.828,32.715,27.832,43.945,74.707,0
1528295665.277,51.270,35.156,29.297,33.203,16.602,0
1528295665.281,27.832,32.227,32.715,20.996,35.645,0
1528295665.278,36.133,25.879,36.621,26.855,-2.441,0
1528295665.282,72.754,28.320,33.203,55.176,-16.113,0
1528295665.286,56.152,31.738,27.344,41.992,56.152,0
1528295665.290,3.418,35.645,26.367,17.090,50.781,0
1528295665.294,-2.930,39.551,27.832,27.344,30.762,0
1528295665.298,32.715,39.551,27.344,35.645,15.625,0
1528295665.302,45.898,34.180,28.320,30.273,25.879,0
1528295665.305,15.625,35.156,31.738,12.695,14.160,0
1528295665.309,7.812,33.691,27.344,8.789,30.273,0
1528295665.313,41.504,28.320,25.391,24.902,56.152,0
1528295665.317,65.430,31.738,25.879,38.086,78.613,0
1528295665.321,39.551,36.621,30.762,41.504,47.363,0
1528295665.339,6.348,35.645,32.227,32.715,16.113,0
1528295665.343,15.137,33.203,26.367,28.320,0.000,0
1528295665.347,43.457,28.809,25.391,48.828,-12.695,0
1528295665.351,32.715,26.855,21.973,43.945,30.762,0
1528295665.355,6.348,34.180,22.949,13.672,-36.133,0
1528295665.359,18.066,37.109,32.227,17.090,21.973,0
1528295665.363,41.992,36.621,27.832,37.109,74.707,0
1528295665.366,50.781,34.180,22.461,40.039,15.625,0
1528295665.370,27.344,35.645,29.785,30.273,69.336,0
1528295665.374,19.043,38.574,31.250,30.273,46.387,0
1528295665.378,35.156,36.621,29.297,36.621,-18.066,0
1528295665.382,45.410,37.109,31.738,38.086,4.395,0
1528295665.379,34.668,40.039,32.227,37.109,-16.113,0
1528295665.383,8.789,37.598,31.250,35.156,-38.086,0
1528295665.387,20.508,36.133,27.832,37.598,27.344,0
1528295665.391,50.781,37.109,26.367,40.527,30.273,0
1528295665.395,45.410,40.039,28.809,24.902,-27.344,0
1528295665.399,31.250,40.527,30.273,12.207,-22.949,0
1528295665.403,14.648,38.574,30.273,17.578,12.695,0
1528295665.406,23.926,36.133,27.832,33.691,103.027,0
1528295665.410,40.527,34.668,29.297,40.039,92.773,0
1528295665.414,17.578,36.133,33.203,25.879,82.031,0
1528295665.418,21.484,33.691,33.691,26.367,40.527,0
1528295665.422,55.176,29.785,32.715,37.109,9.277,0
1528295665.418,47.852,34.180,35.156,41.016,36.621,0
1528295665.422,23.926,37.109,41.992,29.785,13.184,0
1528295665.426,23.438,34.180,42.480,17.090,27.344,0
1528295665.430,36.621,26.855,35.156,31.738,43.945,0
1528295665.434,43.945,27.344,36.133,51.270,59.570,0
1528295665.438,25.391,34.180,41.016,41.992,52.246,0
1528295665.442,16.113,37.109,41.504,22.949,-32.715,0
1528295665.445,38.574,36.133,34.180,23.926,-25.391,0
1528295665.449,57.617,32.227,26.855,36.133,98.633,0
1528295665.453,41.016,31.250,35.156,28.320,50.293,0
1528295665.457,20.508,35.645,40.039,24.414,-3.906,0
1528295665.461,29.785,38.086,40.527,31.738,37.109,0
1528295665.479,53.711,33.691,39.551,41.016,46.387,0
1528295665.483,41.016,33.203,36.133,39.062,75.684,0
1528295665.487,9.766,35.645,35.156,19.531,20.020,0
1528295665.491,8.301,33.691,30.273,16.602,-10.254,0
1528295665.495,36.133,32.227,28.320,29.785,40.039,0
1528295665.499,48.340,32.715,31.250,35.156,44.434,0
1528295665.503,31.250,33.691,31.250,26.855,36.133,0
1528295665.506,25.879,34.180,34.180,29.785,25.391,0
1528295665.510,32.715,33.691,36.621,38.574,19.531,0
1528295665.514,52.246,35.156,38.086,38.574,12.207,0
1528295665.518,26.367,37.598,39.551,27.832,77.637,0
1528295665.522,1.953,34.668,40.527,13.672,70.801,0
1528295665.519,23.438,27.832,38.574,29.785,16.113,0
1528295665.523,46.875,23.926,36.621,49.316,19.531,0
1528295665.527,42.480,28.320,37.109,33.203,67.383,0
1528295665.531,19.043,32.715,38.574,13.672,57.129,0
1528295665.535,26.855,32.715,37.598,22.949,-31.250,0
1528295665.539,53.223,34.180,37.109,44.434,0.000,0
1528295665.543,61.523,34.668,34.180,29.297,32.715,0
1528295665.546,43.945,35.156,32.227,15.137,18.555,0
1528295665.550,7.812,37.598,31.738,15.137,14.160,0
1528295665.554,27.832,36.621,34.668,26.367,35.645,0
1528295665.558,60.547,34.668,36.621,37.109,48.828,0
1528295665.562,40.039,36.133,37.109,17.578,45.410,0
1528295665.578,20.508,31.250,36.621,5.371,10.742,0
1528295665.582,40.527,20.996,31.250,26.367,8.789,0
1528295665.586,62.988,20.020,28.809,46.387,15.137,0
1528295665.590,40.527,30.762,30.762,39.551,-2.441,0
1528295665.594,15.137,34.668,35.156,28.809,7.324,0
1528295665.598,29.785,33.203,32.715,30.273,54.688,0
1528295665.602,51.270,32.227,28.320,31.738,5.859,0
1528295665.605,34.180,30.273,30.273,32.227,-47.363,0
1528295665.609,21.973,31.250,33.203,30.273,-23.438,0
1528295665.613,38.574,33.691,33.203,30.273,-24.414,0
1528295665.617,53.223,29.297,29.297,36.621,12.695,0
1528295665.621,53.711,30.273,29.297,38.086,18.066,0
1528295665.618,32.715,34.180,31.250,18.555,18.555,0
1528295665.622,26.367,33.691,31.738,13.672,25.391,0
1528295665.626,52.734,33.691,24.902,29.297,31.738,0
1528295665.630,68.359,34.668,22.461,27.832,16.113,0
1528295665.634,42.480,37.598,29.297,20.508,-17.090,0
1528295665.638,11.230,33.691,30.762,22.949,-6.836,0
1528295665.642,27.832,30.762,29.297,25.879,46.387,0
1528295665.645,53.223,31.250,30.762,35.645,71.777,0
1528295665.649,39.551,30.762,28.809,31.250,16.113,0
1528295665.653,17.090,26.855,26.855,19.531,20.996,0
1528295665.657,23.438,29.297,29.785,29.297,45.410,0
1528295665.661,53.223,28.809,29.785,45.410,25.879,0
1528295665.656,56.152,29.297,30.273,48.340,8.789,0
1528295665.660,29.297,34.668,32.227,23.926,49.316,0
1528295665.664,18.555,33.691,31.738,15.137,6.348,0
1528295665.668,39.551,34.180,32.227,32.227,-5.371,0
1528295665.672,44.434,33.691,31.738,40.527,83.984,0
1528295665.676,17.090,36.621,30.273,26.855,42.480,0
1528295665.680,14.648,38.574,29.785,16.113,-7.324,0
1528295665.683,52.246,32.227,25.879,27.344,58.594,0
1528295665.687,63.477,34.668,27.832,32.715,62.988,0
1528295665.691,30.762,39.062,32.715,29.297,6.348,0
1528295665.695,7.324,35.156,29.785,21.484,-5.859,0
1528295665.699,23.438,33.203,28.809,30.762,-13.672,0
1528295665.719,47.363,32.715,29.297,38.086,19.043,0
1528295665.723,47.363,34.180,30.762,20.996,54.199,0
1528295665.727,36.133,33.691,31.250,21.973,6.836,0
1528295665.731,21.484,28.320,29.785,28.320,21.973,0
1528295665.735,37.109,27.344,29.297,41.504,11.719,0
1528295665.739,47.363,30.273,31.250,41.992,-22.461,0
1528295665.743,17.578,31.250,34.180,29.785,-6.836,0
1528295665.746,21.973,32.715,34.180,36.621,-7.812,0
1528295665.750,48.340,29.785,28.320,50.781,59.082,0
1528295665.754,45.898,28.809,29.785,50.781,62.012,0
1528295665.758,29.297,34.180,34.668,33.203,30.762,0
1528295665.762,19.531,34.180,29.785,25.391,-16.113,0
1528295665.760,42.969,32.715,20.508,40.527,-22.461,0
1528295665.764,46.875,33.691,26.367,39.062,52.246,0
1528295665.768,13.672,32.227,37.598,32.227,5.371,0
1528295665.772,0.488,27.344,33.691,20.020,-62.500,0
1528295665.776,20.020,28.809,26.855,24.902,-12.695,0
1528295665.780,35.645,33.691,29.785,40.527,97.656,0
1528295665.784,28.809,36.133,34.180,27.344,98.633,0
1528295665.787,4.395,36.133,34.668,15.625,19.043,0
1528295665.791,13.672,34.668,30.273,15.137,-45.898,0
1528295665.795,40.527,33.691,27.832,34.668,-8.789,0
1528295665.799,30.762,32.715,35.156,30.762,74.219,0
1528295665.803,11.719,32.227,36.621,4.395,51.758,0
1528295665.799,14.648,34.668,32.715,9.766,50.293,0
1528295665.803,39.551,30.273,31.738,28.809,44.922,0
1528295665.807,49.316,31.738,34.180,35.645,36.621,0
1528295665.811,38.574,34.668,35.156,34.180,43.457,0
1528295665.815,25.391,28.809,34.180,29.785,54.688,0
1528295665.819,21.973,28.320,38.086,41.504,62.012,0
1528295665.823,38.574,31.738,37.598,53.711,41.016,0
1528295665.826,34.668,35.156,34.668,40.527,54.688,0
1528295665.830,15.137,37.598,39.062,22.949,29.785,0
1528295665.834,26.367,31.738,36.621,22.949,-20.996,0
1528295665.838,45.410,29.785,28.320,39.062,31.738,0
1528295665.842,23.926,33.691,32.227,39.062,5.371,0
1528295665.859,11.230,28.809,37.598,29.785,-14.160,0
1528295665.863,16.602,25.391,38.086,36.621,12.207,0
1528295665.867,42.480,27.832,35.645,51.758,-3.906,0
1528295665.871,43.457,27.344,34.180,46.387,30.273,0
1528295665.875,20.508,31.250,29.785,29.785,-5.371,0
1528295665.879,22.949,33.691,29.297,23.926,-29.297,0
1528295665.883,43.457,30.762,35.156,32.227,39.551,0
1528295665.886,53.711,29.785,34.180,40.039,70.801,0
1528295665.890,44.922,35.156,34.180,28.809,64.941,0
1528295665.894,30.762,37.109,33.203,19.043,24.414,0
1528295665.898,25.879,29.297,32.715,36.133,9.277,0
1528295665.902,44.434,27.344,33.203,49.316,93.262,0
1528295665.899,45.898,33.203,31.250,36.133,43.945,0
1528295665.903,20.996,33.691,30.762,20.996,-29.785,0
1528295665.907,27.832,31.738,29.785,26.367,15.625,0
1528295665.911,55.176,31.250,27.832,39.062,50.293,0
1528295665.915,38.086,30.762,29.297,35.156,50.293,0
1528295665.919,3.906,30.273,30.273,27.832,57.129,0
1528295665.923,2.441,27.344,30.762,27.832,44.434,0
1528295665.926,38.574,25.879,32.715,43.945,-5.859,0
1528295665.930,52.246,26.855,30.762,43.457,26.367,0
1528295665.934,22.949,27.832,34.180,24.902,85.449,0
1528295665.938,8.301,27.344,38.086,25.879,50.293,0
1528295665.942,24.414,24.414,34.180,36.133,9.277,0
1528295665.939,51.758,25.391,32.715,37.109,45.898,0
1528295665.943,43.945,32.715,31.250,33.691,40.039,0
1528295665.947,20.020,35.645,28.320,26.855,3.906,0
1528295665.951,28.809,30.762,30.273,30.762,5.371,0
1528295665.955,56.152,27.832,35.156,41.016,5.371,0
1528295665.959,52.734,30.273,40.039,32.227,-23.438,0
1528295665.963,29.785,34.180,38.086,30.762,-70.801,0
1528295665.966,40.527,34.180,34.180,34.180,-53.223,0
1528295665.970,43.945,31.738,33.203,42.480,59.082,0
1528295665.974,26.855,26.855,28.809,47.363,67.871,0
1528295665.978,15.137,23.438,28.320,25.879,20.508,0
1528295665.982,3.906,26.367,28.809,16.602,-20.020,0
1528295665.999,29.785,27.832,28.320,34.668,-7.812,0
1528295666.003,50.293,31.738,30.273,37.109,30.273,0
1528295666.007,27.832,34.180,31.250,26.855,34.180,0
1528295666.011,19.043,29.785,33.691,30.762,90.820,0
1528295666.015,43.457,25.879,34.668,42.480,57.617,0
1528295666.019,55.664,26.367,32.715,45.410,18.555,0
1528295666.023,34.668,28.809,30.762,31.738,43.457,0
1528295666.026,16.602,27.832,32.227,30.762,44.434,0
1528295666.030,20.508,22.949,31.250,42.480,27.344,0
1528295666.034,37.109,25.391,31.250,43.457,20.508,0
1528295666.038,47.363,28.809,29.785,39.062,-6.348,0
1528295666.042,20.020,30.762,28.320,32.227,-35.156,0
1528295666.039,1.953,29.297,28.809,24.902,-1.465,0
1528295666.043,44.434,26.855,28.320,34.180,-0.977,0
1528295666.047,54.688,27.832,28.320,39.062,11.230,0
1528295666.051,17.578,28.809,26.855,29.297,13.672,0
1528295666.055,19.531,27.832,29.297,28.809,-8.789,0
1528295666.059,55.664,27.344,30.762,40.527,16.113,0
1528295666.063,63.965,26.855,31.250,46.387,74.219,0
1528295666.066,42.969,27.344,35.156,40.039,57.617,0
1528295666.070,18.555,26.367,31.738,35.156,12.695,0
1528295666.074,25.879,28.320,30.762,39.062,23.438,0
1528295666.078,52.246,33.203,28.320,48.340,7.324,0
1528295666.082,47.363,31.250,25.879,40.039,21.484,0
1528295666.079,18.555,30.273,28.809,28.320,26.855,0
1528295666.083,30.273,30.762,25.391,26.855,-4.883,0
1528295666.087,50.781,30.762,23.438,30.273,12.207,0
1528295666.091,54.199,31.738,26.855,34.668,-17.578,0
1528295666.095,38.086,32.227,27.832,34.180,-56.641,0
1528295666.099,22.949,30.762,27.832,29.785,-51.758,0
1528295666.103,45.898,32.715,24.902,35.156,-11.719,0
1528295666.106,41.992,33.691,25.879,45.410,41.504,0
1528295666.110,14.648,32.715,29.297,27.344,54.688,0
1528295666.114,20.020,32.715,29.297,9.766,45.410,0
1528295666.118,44.434,28.809,31.250,23.438,16.113,0
1528295666.122,48.828,26.367,31.250,41.016,48.828,0
1528295666.139,22.949,29.785,31.738,38.574,44.434,0
1528295666.143,2.930,32.715,33.691,21.484,-9.277,0
1528295666.147,28.320,33.203,31.738,28.320,3.418,0
1528295666.151,55.664,31.738,28.320,40.039,27.832,0
1528295666.155,42.480,29.297,31.250,35.645,24.414,0
1528295666.159,21.484,27.344,34.668,28.320,8.789,0
1528295666.163,22.949,28.809,28.809,20.508,-13.672,0
1528295666.166,42.969,31.250,24.902,33.203,1.953,0
1528295666.170,50.293,34.180,29.785,37.109,35.156,0
1528295666.174,36.133,36.621,32.227,21.973,37.109,0
1528295666.178,26.367,34.668,28.809,14.648,41.992,0
1528295666.182,44.434,30.762,23.438,22.461,85.449,0
1528295666.179,58.594,30.273,22.461,24.414,97.168,0
1528295666.183,47.363,33.203,24.902,15.625,47.363,0
1528295666.187,39.062,29.785,25.879,18.555,49.316,0
1528295666.191,33.691,27.344,26.367,30.762,62.500,0
1528295666.195,58.105,29.297,28.320,38.086,28.320,0
1528295666.199,60.059,30.273,30.273,32.715,10.254,0
1528295666.203,17.578,32.227,31.250,32.715,47.363,0
1528295666.206,25.391,33.691,29.785,35.645,66.406,0
1528295666.210,50.781,34.180,26.855,36.621,53.223,0
1528295666.214,39.551,36.133,30.762,26.367,45.898,0
1528295666.218,14.160,36.133,31.738,6.836,30.273,0
1528295666.222,16.113,32.715,26.855,15.625,-2.441,0
1528295666.219,51.758,27.344,29.785,37.598,-8.789,0
1528295666.223,56.152,30.273,34.180,25.879,48.828,0
1528295666.227,14.160,32.715,34.668,14.160,24.414,0
1528295666.231,8.301,27.344,35.156,25.879,9.277,0
1528295666.235,34.180,27.344,31.738,41.992,30.762,0
1528295666.239,42.969,30.762,30.273,34.668,-12.695,0
1528295666.243,26.855,32.227,30.273,19.531,-2.441,0
1528295666.246,3.418,31.250,29.297,16.113,18.555,0
1528295666.250,21.484,33.203,28.320,23.926,74.219,0
1528295666.254,47.363,33.691,25.391,36.133,63.965,0
1528295666.258,30.273,36.621,29.785,29.785,-19.043,0
1528295666.262,17.578,37.598,32.227,24.902,39.551,0
1528295666.278,41.016,35.156,26.367,33.691,92.285,0
1528295666.282,69.336,34.668,27.344,49.805,44.434,0
1528295666.286,52.246,34.180,29.297,40.527,34.668,0
1528295666.290,17.578,35.156,30.273,24.414,31.250,0
1528295666.294,12.695,30.762,34.180,28.809,66.406,0
1528295666.298,43.945,29.297,33.691,41.992,70.801,0
1528295666.302,46.875,33.691,34.180,41.016,43.457,0
1528295666.305,25.879,36.133,30.762,22.949,26.855,0
1528295666.309,26.855,38.086,27.832,23.438,15.137,0
1528295666.313,48.828,37.109,29.297,28.809,29.297,0
1528295666.317,55.664,37.109,31.738,32.715,41.504,0
1528295666.321,31.250,37.598,34.668,30.762,33.691,0
1528295666.317,24.414,37.109,28.320,15.625,54.688,0
1528295666.321,37.598,35.645,25.391,24.902,98.145,0
1528295666.325,41.992,33.691,29.785,38.574,83.008,0
1528295666.329,23.926,36.133,30.762,32.227,50.293,0
1528295666.333,14.648,32.715,34.180,33.203,38.086,0
1528295666.337,37.109,33.203,33.203,39.062,1.953,0
1528295666.341,53.711,36.133,32.227,46.387,37.598,0
1528295666.344,40.039,36.621,35.645,48.340,61.523,0
1528295666.348,18.555,38.086,37.109,40.039,13.184,0
1528295666.352,23.438,38.086,38.086,26.367,-2.930,0
1528295666.356,44.922,36.133,36.621,30.273,68.359,0
1528295666.360,43.457,33.691,34.180,36.621,82.520,0
1528295666.359,29.785,28.809,35.156,32.227,81.543,0
1528295666.363,20.996,26.855,37.109,37.109,33.203,0
1528295666.367,36.621,27.344,37.109,40.039,36.621,0
1528295666.371,54.688,28.809,35.156,42.969,73.242,0
1528295666.375,30.273,33.203,31.250,39.551,55.664,0
1528295666.379,-1.465,36.133,30.762,25.391,42.480,0
1528295666.383,12.207,34.180,26.855,37.598,2.930,0
1528295666.386,28.809,32.715,28.320,46.387,-28.809,0
1528295666.390,15.625,33.203,32.227,32.227,-14.160,0
1528295666.394,1.953,27.344,34.668,26.367,1.465,0
1528295666.398,16.113,27.344,31.738,30.762,9.277,0
1528295666.402,49.316,33.691,24.414,44.922,44.434,0
1528295666.419,38.574,37.109,33.203,30.273,47.852,0
1528295666.423,5.371,37.598,38.574,12.695,39.062,0
1528295666.427,15.625,32.715,39.062,19.531,42.969,0
1528295666.431,44.434,30.762,36.621,30.273,45.898,0
1528295666.435,40.039,33.203,34.180,41.016,24.902,0
1528295666.439,13.672,38.086,39.551,31.738,70.312,0
1528295666.443,13.184,41.504,40.039,23.438,36.621,0
1528295666.446,44.434,37.109,37.598,39.062,-54.688,0
1528295666.450,55.176,34.668,35.156,50.293,9.277,0
1528295666.454,28.320,35.645,31.250,38.574,47.363,0
1528295666.458,5.371,36.621,32.715,31.738,28.809,0
1528295666.462,30.762,36.133,31.738,38.086,40.039,0
1528295666.459,58.105,32.715,25.879,52.246,47.363,0
1528295666.463,35.645,29.785,30.762,51.758,31.250,0
1528295666.467,11.719,32.715,37.598,32.227,9.766,0
1528295666.471,18.066,36.133,35.645,33.203,32.715,0
1528295666.475,45.410,36.621,38.574,48.828,27.344,0
1528295666.479,43.945,39.551,37.598,48.828,7.324,0
1528295666.483,15.137,38.574,32.227,26.855,14.160,0
1528295666.486,15.625,33.203,27.832,22.949,21.973,0
1528295666.490,41.504,28.320,20.508,42.969,8.789,0
1528295666.494,56.152,27.344,21.973,37.109,-18.066,0
1528295666.498,27.832,29.785,26.367,23.438,-1.465,0
1528295666.502,6.348,29.785,26.367,26.855,7.812,0
1528295666.499,42.480,28.809,28.320,38.086,-7.324,0
1528295666.503,63.477,32.715,27.832,35.156,32.227,0
1528295666.507,40.527,35.645,25.879,25.879,53.711,0
1528295666.511,31.250,36.133,25.879,26.855,22.949,0
1528295666.515,49.805,37.598,25.391,30.273,30.762,0
1528295666.519,61.035,38.086,27.344,35.645,-12.207,0
1528295666.523,42.969,35.156,28.809,37.598,-31.250,0
1528295666.526,16.602,35.645,29.297,30.762,-5.371,0
1528295666.530,23.438,31.250,26.855,25.391,19.043,0
1528295666.534,52.246,27.344,24.414,35.156,16.113,0
1528295666.538,56.641,30.273,28.809,41.504,54.688,0
1528295666.542,45.410,31.738,29.297,30.762,18.066,0
1528295666.559,27.344,31.738,23.926,26.855,-33.203,0
1528295666.563,35.645,31.250,27.344,37.109,-24.414,0
1528295666.567,43.945,27.832,33.203,41.992,0.488,0
1528295666.571,20.020,27.832,36.621,24.902,-17.578,0
1528295666.575,17.090,30.273,39.062,21.973,-51.270,0
1528295666.579,35.156,27.344,35.156,42.969,11.230,0
1528295666.583,43.457,23.926,32.715,37.109,31.250,0
1528295666.586,29.785,25.879,34.180,23.438,29.785,0
1528295666.590,21.484,32.227,36.621,32.227,15.625,0
1528295666.594,33.203,32.227,37.598,36.133,42.969,0
1528295666.598,50.293,29.785,37.109,41.504,69.824,0
1528295666.602,42.969,35.156,32.227,40.039,45.898,0
1528295666.599,20.508,38.574,32.227,23.926,71.777,0
1528295666.603,27.832,32.227,34.668,25.879,51.270,0
1528295666.607,58.105,25.391,31.738,35.156,35.645,0
1528295666.611,66.895,28.809,32.715,35.156,60.059,0
1528295666.615,44.922,33.691,35.156,21.973,-11.719,0
1528295666.619,32.227,30.762,34.668,22.949,7.812,0
1528295666.623,49.316,31.250,32.227,39.062,57.617,0
1528295666.626,52.246,31.250,32.227,43.457,29.297,0
1528295666.630,27.344,31.250,35.645,37.109,64.453,0
1528295666.634,6.836,35.645,38.086,25.391,20.508,0
1528295666.638,24.414,35.156,29.297,27.832,4.395,0
1528295666.642,51.758,32.715,24.414,40.039,54.688,0
1528295666.639,30.762,32.715,33.203,34.180,40.039,0
1528295666.643,18.066,35.156,38.574,32.715,59.570,0
1528295666.647,26.855,37.109,38.574,42.969,73.730,0
1528295666.651,38.574,34.668,37.109,44.434,61.035,0
1528295666.655,24.902,30.762,37.109,34.668,62.500,0
1528295666.659,-5.371,28.809,37.109,25.391,55.664,0
1528295666.663,6.348,27.832,35.156,28.320,37.109,0
1528295666.666,34.180,31.738,35.156,39.551,19.043,0
1528295666.670,42.480,34.180,32.715,30.762,26.855,0
1528295666.674,34.668,37.598,33.203,21.484,17.578,0
1528295666.678,28.320,37.598,37.598,25.879,42.480,0
1528295666.682,34.668,33.203,33.203,38.574,47.852,0
1528295666.700,46.875,30.273,30.273,48.828,20.020,0
1528295666.704,30.762,32.227,33.203,35.645,58.105,0
1528295666.708,17.578,34.668,33.691,26.367,49.805,0
1528295666.712,47.363,31.738,33.203,38.086,-5.371,0
1528295666.716,58.594,33.203,32.715,38.086,24.902,0
1528295666.720,31.738,38.574,34.668,25.391,7.324,0
1528295666.724,12.207,39.062,34.180,17.578,-25.391,0
1528295666.727,34.180,33.691,31.738,17.578,-4.395,0
1528295666.731,69.824,34.180,30.273,30.762,31.250,0
1528295666.735,59.570,35.645,29.785,32.227,31.738,0
1528295666.739,20.020,36.133,31.250,27.344,39.551,0
1528295666.743,17.578,34.668,27.344,24.414,69.824,0
1528295666.739,55.176,30.762,18.555,33.691,63.965,0
1528295666.743,62.988,28.809,20.020,43.945,34.180,0
1528295666.747,22.949,32.227,26.855,26.855,49.316,0
1528295666.751,10.254,30.762,31.738,17.090,57.617,0
1528295666.755,36.621,24.414,32.227,32.715,2.930,0
1528295666.759,54.199,26.855,28.320,46.387,18.555,0
1528295666.763,31.738,31.738,28.320,35.645,51.758,0
1528295666.766,2.930,32.227,31.738,20.020,34.180,0
1528295666.770,11.719,34.180,27.832,33.691,19.531,0
1528295666.774,26.367,36.133,27.832,43.945,28.809,0
1528295666.778,23.926,36.133,29.785,34.668,45.410,0
1528295666.782,16.602,37.109,26.367,31.250,71.289,0
1528295666.778,28.809,36.621,27.344,26.367,21.484,0
1528295666.782,54.688,32.715,30.273,39.551,-10.254,0
1528295666.786,53.711,32.715,28.809,43.457,6.348,0
1528295666.790,31.250,31.738,27.832,22.949,-28.320,0
1528295666.794,22.949,32.227,27.832,22.461,-17.578,0
1528295666.798,42.480,34.180,24.414,38.086,-21.484,0
1528295666.802,50.293,34.180,23.926,35.645,1.465,0
1528295666.805,18.066,39.062,25.391,18.066,25.391,0
1528295666.809,0.977,36.133,23.926,15.137,-3.418,0
1528295666.813,32.715,26.855,22.461,27.832,-7.324,0
1528295666.817,63.965,30.273,25.879,38.086,-3.906,0
1528295666.821,48.340,37.109,28.320,37.109,50.781,0
1528295666.839,22.461,37.598,30.273,35.645,48.828,0
1528295666.843,21.973,33.203,29.297,35.645,57.617,0
1528295666.847,40.039,29.297,28.320,36.621,75.195,0
1528295666.851,45.898,29.785,29.785,37.598,47.363,0
1528295666.855,20.508,31.738,34.668,28.320,15.137,0
1528295666.859,12.207,30.273,33.691,25.879,-26.367,0
1528295666.863,39.062,26.367,24.902,42.969,7.324,0
1528295666.866,41.016,27.832,28.809,41.504,15.137,0
1528295666.870,15.625,31.250,35.156,26.367,-31.250,0
1528295666.874,8.789,28.320,32.715,27.344,-51.758,0
1528295666.878,37.598,26.855,28.809,41.992,-10.254,0
1528295666.882,41.504,29.297,28.809,41.992,22.461,0
1528295666.879,16.602,30.762,29.297,36.133,48.340,0
1528295666.883,19.043,32.227,31.738,30.762,20.508,0
1528295666.887,49.316,28.809,29.297,26.367,23.926,0
1528295666.891,44.922,25.879,26.855,37.598,79.102,0
1528295666.895,20.996,25.879,25.879,28.320,79.102,0
1528295666.899,19.531,27.832,25.391,13.184,31.738,0
1528295666.903,27.344,30.762,20.508,20.996,6.348,0
1528295666.906,45.898,32.227,17.090,29.297,40.039,0
1528295666.910,46.387,33.691,20.508,21.973,69.824,0
1528295666.914,20.996,32.715,20.020,16.113,29.785,0
1528295666.918,25.391,29.785,20.508,21.484,17.090,0
1528295666.922,54.199,30.762,22.949,38.086,32.227,0
1528295666.918,47.363,33.691,25.391,40.039,64.941,0
1528295666.922,19.531,37.598,26.855,35.645,71.777,0
1528295666.926,12.695,35.156,22.461,32.227,-4.395,0
1528295666.930,45.410,29.297,25.391,41.504,10.742,0
1528295666.934,60.059,32.715,33.203,49.805,48.340,0
1528295666.938,32.227,37.109,35.156,48.340,61.035,0
1528295666.942,9.766,36.133,35.645,38.574,61.035,0
1528295666.945,22.949,33.691,36.133,23.438,60.059,0
1528295666.949,55.176,32.715,32.715,32.715,57.617,0
1528295666.953,43.457,30.273,32.715,34.180,38.574,0
1528295666.957,18.066,30.273,34.668,28.809,6.348,0
1528295666.961,25.391,27.832,32.227,38.574,7.812,0
1528295666.980,47.852,28.809,32.715,44.434,4.395,0
1528295666.984,45.898,35.645,31.738,31.250,55.664,0
1528295666.988,26.855,37.109,32.227,29.297,84.473,0
1528295666.992,14.648,32.715,32.227,33.203,25.879,0
1528295666.996,31.250,32.227,28.809,35.156,31.738,0
1528295667.000,50.781,36.133,27.832,32.715,52.246,0
1528295667.004,30.273,37.598,27.344,25.879,41.992,0
1528295667.007,12.695,35.645,25.879,21.484,-2.441,0
1528295667.011,26.367,33.203,23.438,21.484,21.973,0
1528295667.015,42.969,31.738,21.973,30.273,25.391,0
1528295667.019,32.227,35.156,24.414,29.785,6.836,0
1528295667.023,21.484,40.039,27.344,17.578,-16.602,0
1528295667.019,29.297,34.668,19.531,18.555,1.953,0
1528295667.023,40.527,32.227,15.625,35.645,40.527,0
1528295667.027,34.180,34.180,25.391,35.645,13.672,0
1528295667.031,14.648,33.203,30.762,22.461,27.832,0
1528295667.035,10.254,31.738,29.785,21.973,39.551,0
1528295667.039,29.297,31.250,28.809,35.645,-19.531,0
1528295667.043,38.574,29.297,31.738,42.969,8.301,0
1528295667.046,23.926,29.297,34.668,32.715,47.852,0
1528295667.050,5.859,28.320,35.156,28.320,-44.922,0
1528295667.054,27.832,24.902,34.180,32.715,-64.941,0
1528295667.058,48.340,24.902,34.180,35.156,58.594,0
1528295667.062,19.043,27.344,35.156,34.668,83.496,0
1528295667.080,17.090,24.414,34.668,33.691,10.742,0
1528295667.084,48.340,23.438,32.715,47.852,0.977,0
1528295667.088,55.664,30.273,31.738,51.758,35.645,0
1528295667.092,26.855,35.156,31.738,27.832,34.180,0
1528295667.096,8.301,32.715,32.715,26.855,28.320,0
1528295667.100,30.762,30.762,30.762,44.922,9.766,0
1528295667.104,44.434,31.250,26.855,54.199,61.035,0
1528295667.107,24.902,30.273,31.250,37.109,85.449,0
1528295667.111,7.812,28.809,31.738,13.672,2.441,0
1528295667.115,12.695,28.320,27.832,20.996,-9.766,0
1528295667.119,35.156,29.297,27.832,38.086,27.344,0
1528295667.123,39.551,29.785,28.809,44.922,-8.301,0
1528295667.119,23.438,31.250,30.273,25.879,-6.348,0
1528295667.123,19.043,33.203,28.320,11.719,26.855,0
1528295667.127,49.316,35.645,22.949,30.762,27.344,0
1528295667.131,61.523,34.180,22.949,39.062,61.035,0
1528295667.135,20.020,32.715,30.273,30.273,48.340,0
1528295667.139,11.230,36.621,33.691,29.785,15.625,0
1528295667.143,31.738,35.645,31.250,33.203,5.371,0
1528295667.146,45.898,32.227,30.273,39.551,41.504,0
1528295667.150,37.598,32.715,32.227,32.715,46.875,0
1528295667.154,14.648,33.203,31.738,21.484,32.227,0
1528295667.158,6.348,33.691,34.180,32.227,56.641,0
1528295667.162,31.738,30.273,32.715,40.039,29.297,0
1528295667.158,35.156,27.832,30.273,32.227,-11.719,0
1528295667.162,8.789,26.367,29.785,23.438,-6.348,0
1528295667.166,14.160,22.461,25.879,25.391,21.484,0
1528295667.170,42.480,23.926,27.832,34.668,11.230,0
1528295667.174,49.805,24.902,32.715,30.273,-1.465,0
1528295667.178,26.367,25.391,33.203,19.531,-6.348,0
1528295667.182,13.184,28.320,30.762,17.090,12.207,0
1528295667.185,23.926,24.902,30.762,37.598,43.457,0
1528295667.189,37.109,22.461,35.156,47.852,20.508,0
1528295667.193,30.762,27.344,37.598,29.785,-3.418,0
1528295667.197,26.367,29.785,34.668,22.949,17.578,0
1528295667.201,32.715,26.367,35.645,40.039,12.695,0
1528295667.219,46.387,27.344,32.715,41.992,12.695,0
1528295667.223,38.574,30.762,25.391,25.879,-3.418,0
1528295667.227,25.391,32.227,26.855,19.043,35.156,0
1528295667.231,44.434,34.668,31.738,36.621,23.926,0
1528295667.235,54.688,32.227,31.738,49.316,-8.301,0
1528295667.239,42.969,30.273,32.715,37.598,6.836,0
1528295667.243,20.020,31.738,34.180,26.367,-17.090,0
1528295667.246,4.883,28.320,31.250,22.461,23.438,0
1528295667.250,31.250,28.320,24.414,30.762,41.992,0
1528295667.254,41.016,34.668,23.438,30.762,40.527,0
1528295667.258,26.855,35.156,26.367,12.207,62.988,0
1528295667.262,20.508,34.180,27.344,13.672,34.668,0
1528295667.259,24.414,31.738,25.879,34.180,20.996,0
1528295667.263,44.434,27.832,21.973,39.062,53.711,0
1528295667.267,40.527,30.273,23.438,29.297,75.684,0
1528295667.271,13.184,31.250,26.367,18.555,70.801,0
1528295667.275,25.391,29.297,26.367,28.809,8.301,0
1528295667.279,49.805,29.785,25.391,34.668,1.953,0
1528295667.283,26.367,27.344,25.879,19.043,12.695,0
1528295667.286,13.184,24.414,26.367,11.719,7.324,0
1528295667.290,22.461,28.320,26.367,25.391,17.090,0
1528295667.294,55.176,30.762,23.438,43.945,31.250,0
1528295667.298,55.664,32.715,24.414,40.527,48.340,0
1528295667.302,23.926,33.691,28.809,29.297,29.785,0
1528295667.301,23.438,33.203,29.297,25.879,-13.184,0
1528295667.305,47.363,31.250,28.320,34.668,7.324,0
1528295667.309,60.059,26.855,21.484,41.992,67.871,0
1528295667.313,34.180,28.320,18.555,24.902,62.500,0
1528295667.317,14.160,33.691,25.391,18.555,37.598,0
1528295667.321,26.367,34.668,26.367,35.645,73.242,0
1528295667.325,47.363,35.645,26.855,40.039,89.355,0
1528295667.328,38.086,36.621,26.855,33.203,59.082,0
1528295667.332,8.789,38.086,27.832,22.949,20.996,0
1528295667.336,25.879,37.109,27.344,23.438,4.883,0
1528295667.340,58.594,33.203,24.902,41.992,23.926,0
1528295667.344,46.875,34.180,28.809,33.203,-8.789,0
1528295667.360,30.273,34.668,28.809,10.742,-31.738,0
1528295667.364,37.109,35.156,25.391,18.066,3.418,0
1528295667.368,45.898,36.133,26.855,33.691,18.555,0
1528295667.372,36.133,37.598,25.879,32.715,-5.371,0
1528295667.376,17.578,36.621,24.414,24.414,27.832,0
1528295667.380,12.695,35.645,25.391,27.344,76.660,0
1528295667.384,41.016,38.086,27.832,38.574,62.988,0
1528295667.387,67.383,39.062,31.738,44.922,17.578,0
1528295667.391,39.551,35.156,33.691,37.109,17.090,0
1528295667.395,19.043,33.203,31.738,26.367,21.973,0
1528295667.399,43.457,30.273,28.320,32.227,2.930,0
1528295667.403,59.570,26.367,26.367,40.527,34.668,0
1528295667.399,43.457,30.762,25.391,36.133,59.082,0
1528295667.403,28.320,32.227,25.391,29.297,64.453,0
1528295667.407,36.133,30.762,29.297,39.062,45.898,0
1528295667.411,60.059,31.738,31.738,51.270,-8.789,0
1528295667.415,50.293,32.715,30.762,39.551,-8.789,0
1528295667.419,15.625,35.645,31.250,22.949,14.160,0
1528295667.423,15.137,36.621,27.344,28.320,9.277,0
1528295667.426,50.293,33.203,22.461,43.945,41.992,0
1528295667.430,71.289,35.156,28.320,45.410,62.988,0
1528295667.434,30.762,39.551,37.109,33.203,45.410,0
1528295667.438,2.441,41.016,37.598,21.973,21.484,0
1528295667.442,33.691,42.480,31.250,35.645,-1.953,0
1528295667.439,57.129,42.969,29.297,47.852,45.410,0
1528295667.443,36.621,38.086,27.832,32.715,79.102,0
1528295667.447,23.438,40.039,27.832,23.438,18.066,0
1528295667.451,37.598,44.434,28.809,30.273,-27.832,0
1528295667.455,54.199,39.062,25.879,35.645,47.852,0
1528295667.459,40.039,38.574,27.832,34.180,93.750,0
1528295667.463,20.996,40.039,31.738,26.855,73.730,0
1528295667.466,29.297,39.062,32.227,25.879,52.734,0
1528295667.470,41.016,41.504,32.227,43.945,49.316,0
1528295667.474,39.551,39.062,31.738,46.875,21.484,0
1528295667.478,30.762,34.668,33.203,29.297,0.488,0
1528295667.482,22.949,38.574,33.691,19.531,27.832,0
1528295667.499,36.133,36.621,30.273,31.738,27.832,0
1528295667.503,47.852,34.668,28.809,41.016,39.551,0
1528295667.507,20.996,36.621,28.809,31.738,43.457,0
1528295667.511,-0.488,34.668,26.855,24.902,10.254,0
1528295667.515,22.461,31.738,24.902,28.809,13.672,0
1528295667.519,41.504,29.297,29.297,38.574,40.527,0
1528295667.523,28.320,34.180,32.227,23.926,16.602,0
1528295667.526,17.090,38.574,32.227,21.973,15.137,0
1528295667.530,28.320,37.109,30.273,41.016,62.012,0
1528295667.534,42.969,37.109,27.832,48.828,65.430,0
1528295667.538,31.738,35.156,31.738,45.410,35.645,0
1528295667.542,8.301,33.691,37.598,38.574,54.199,0
1528295667.539,0.977,32.715,37.598,33.691,80.566,0
1528295667.543,30.273,28.320,31.738,26.855,53.711,0
1528295667.547,53.223,31.250,29.297,27.344,62.500,0
1528295667.551,26.855,38.574,32.715,23.926,22.461,0
1528295667.555,15.137,39.062,35.156,26.367,14.160,0
1528295667.559,39.551,35.645,36.621,47.363,41.992,0
1528295667.563,50.781,31.250,34.668,50.293,36.133,0
1528295667.566,27.832,31.250,32.227,35.645,76.172,0
1528295667.570,8.301,28.809,30.762,25.391,17.090,0
1528295667.574,26.855,24.414,32.715,32.227,-54.199,0
1528295667.578,43.945,25.391,34.668,38.574,-2.930,0
1528295667.582,31.250,28.809,34.668,32.715,0.977,0
1528295667.577,26.367,32.227,35.156,25.391,-0.488,0
1528295667.581,45.898,31.738,29.785,26.367,62.012,0
1528295667.585,51.758,31.738,27.344,46.387,20.996,0
1528295667.589,43.457,32.715,31.250,47.363,20.508,0
1528295667.593,22.949,34.180,33.203,30.273,21.973,0
1528295667.597,26.855,34.668,31.738,29.785,-18.066,0
1528295667.601,51.270,32.715,31.738,43.945,9.277,0
1528295667.604,34.668,33.203,34.668,43.457,20.996,0
1528295667.608,15.137,36.621,36.621,28.320,18.066,0
1528295667.612,28.809,37.109,33.691,25.391,28.809,0
1528295667.616,46.387,33.691,28.809,38.086,61.035,0
1528295667.620,56.641,31.738,26.855,42.480,92.285,0
1528295667.640,39.551,32.227,32.227,33.691,34.668,0
1528295667.644,12.207,36.133,27.344,26.855,36.621,0
1528295667.648,33.203,39.062,26.367,38.574,79.102,0
1528295667.652,63.477,39.062,32.227,43.945,38.574,0
1528295667.656,54.688,39.551,33.691,29.785,28.809,0
1528295667.660,28.320,38.574,34.180,24.414,-13.672,0
1528295667.664,26.367,39.062,30.762,28.809,-12.695,0
1528295667.667,47.363,39.551,26.367,37.109,58.105,0
1528295667.671,43.457,34.180,26.367,38.574,23.438,0
1528295667.675,20.020,30.762,26.855,28.809,-33.203,0
1528295667.679,18.066,31.738,24.902,27.344,37.109,0
1528295667.683,41.016,32.715,25.879,37.598,69.336,0
1528295667.680,43.945,34.668,26.855,34.180,9.277,0
1528295667.684,21.484,36.621,28.320,12.207,30.273,0
1528295667.688,19.043,35.156,31.250,13.672,57.129,0
1528295667.692,41.016,30.762,27.832,24.902,59.082,0
1528295667.696,41.504,31.250,25.391,28.809,58.594,0
1528295667.700,19.531,31.250,30.762,23.438,26.855,0
1528295667.704,3.906,29.785,34.668,19.043,18.066,0
1528295667.707,14.160,26.367,29.785,24.902,6.836,0
1528295667.711,37.598,21.484,21.973,26.367,-6.836,0
1528295667.715,20.996,23.926,25.879,18.555,-12.695,0
1528295667.719,-0.488,21.484,29.297,12.207,-7.812,0
1528295667.723,18.066,20.508,25.879,23.438,-4.395,0
1528295667.719,52.734,25.879,25.879,28.320,38.086,0
1528295667.723,53.711,29.785,27.344,18.066,66.406,0
1528295667.727,18.555,30.762,32.227,13.672,79.102,0
1528295667.731,13.672,31.250,30.273,20.508,31.738,0
1528295667.735,50.293,29.785,26.855,32.227,13.672,0
1528295667.739,57.129,28.320,29.785,31.738,30.273,0
1528295667.743,27.832,28.809,27.832,16.113,6.836,0
1528295667.746,19.531,28.809,28.320,15.625,38.574,0
1528295667.750,36.133,29.297,29.297,25.879,80.078,0
1528295667.754,58.594,31.738,27.344,37.598,23.926,0
1528295667.758,43.457,35.156,30.762,34.668,11.719,0
1528295667.762,27.832,35.156,30.762,19.043,1.465,0
1528295667.780,33.203,32.715,22.461,20.020,13.672,0
1528295667.784,45.410,28.809,20.020,29.297,36.621,0
1528295667.788,39.551,30.762,29.785,27.832,49.805,0
1528295667.792,18.555,32.227,33.691,21.484,34.668,0
1528295667.796,31.738,30.762,32.227,22.949,4.883,0
1528295667.800,52.246,26.855,29.785,35.645,74.219,0
1528295667.804,24.902,27.832,29.785,32.715,54.199,0
1528295667.807,0.000,30.273,30.273,20.020,-27.344,0
1528295667.811,3.418,27.344,27.832,20.020,10.254,0
1528295667.815,31.250,30.762,30.273,35.156,72.266,0
1528295667.819,41.504,35.645,30.762,41.016,33.691,0
1528295667.823,12.207,35.156,30.762,25.879,28.320,0
1528295667.820,3.418,33.203,28.320,20.020,40.039,0
1528295667.824,33.203,28.809,23.438,28.320,58.594,0
1528295667.828,51.270,24.902,24.414,40.039,38.574,0
1528295667.832,32.715,27.832,26.855,34.668,17.090,0
1528295667.836,20.996,30.762,27.344,24.902,29.785,0
1528295667.840,32.227,32.227,26.367,27.344,-14.160,0
1528295667.844,50.293,33.203,23.926,39.551,-14.648,0
1528295667.847,39.062,34.668,22.461,41.504,41.992,0
1528295667.851,17.578,34.668,23.926,25.879,-4.883,0
1528295667.855,22.461,33.691,28.809,24.414,18.066,0
1528295667.859,49.316,32.715,33.691,37.598,87.402,0
1528295667.863,52.734,24.902,34.180,42.480,30.762,0
1528295667.860,23.926,20.020,32.715,29.297,-1.465,0
1528295667.864,16.602,25.879,32.227,23.438,41.016,0
1528295667.868,45.898,25.391,34.668,49.316,7.324,0
1528295667.872,58.105,25.391,35.645,54.688,-10.742,0
1528295667.876,30.762,30.762,33.203,36.133,26.367,0
1528295667.880,13.672,25.879,24.902,25.879,-30.273,0
1528295667.884,41.992,21.973,19.531,32.715,-25.879,0
1528295667.887,58.105,25.391,27.344,42.969,44.922,0
1528295667.891,11.230,27.832,32.715,34.668,23.438,0
1528295667.895,-2.441,28.809,30.762,18.555,29.785,0
1528295667.899,26.367,29.297,29.297,27.344,62.012,0
1528295667.903,49.805,27.344,27.344,42.480,56.641,0
1528295667.919,42.969,31.250,27.344,36.621,46.387,0
1528295667.923,12.207,31.250,30.762,33.203,67.871,0
1528295667.927,6.348,25.391,31.738,33.203,59.570,0
1528295667.931,37.598,28.809,29.297,39.062,-5.371,0
1528295667.935,44.922,33.691,27.344,36.621,-11.230,0
1528295667.939,17.090,34.668,29.785,29.297,48.828,0
1528295667.943,14.648,36.133,30.762,21.484,53.711,0
1528295667.946,39.551,34.180,25.391,31.250,57.129,0
1528295667.950,58.594,30.273,22.949,40.527,34.668,0
1528295667.954,40.039,28.320,25.391,26.855,76.660,0
1528295667.958,21.973,31.738,28.320,18.066,109.375,0
1528295667.962,41.504,34.668,25.391,26.855,39.062,0
1528295667.959,60.547,30.273,21.973,47.363,12.695,0
1528295667.963,43.457,30.273,24.414,39.062,14.648,0
1528295667.967,29.785,32.227,28.809,25.391,-42.480,0
1528295667.971,31.250,26.855,29.297,22.949,-31.250,0
1528295667.975,44.434,30.762,25.391,34.180,4.395,0
1528295667.979,41.016,35.156,26.855,39.551,70.801,0
1528295667.983,20.020,33.203,27.832,22.949,67.383,0
1528295667.986,21.973,34.668,21.973,20.508,31.250,0
1528295667.990,39.062,35.156,22.461,36.621,23.438,0
1528295667.994,33.203,32.227,30.762,38.086,24.414,0
1528295667.998,12.207,30.762,33.203,26.855,22.461,0
1528295668.002,4.395,33.203,30.273,26.367,24.902,0
1528295667.999,24.414,34.668,27.832,42.480,29.297,0
1528295668.003,44.922,36.133,25.879,41.992,72.754,0
1528295668.007,22.949,36.621,29.297,19.531,55.176,0
1528295668.011,11.230,33.203,32.715,8.301,-37.109,0
1528295668.015,28.320,28.320,28.809,22.949,21.484,0
1528295668.019,45.410,28.809,27.344,44.922,24.902,0
1528295668.023,45.410,31.250,27.344,28.320,17.578,0
1528295668.026,24.414,35.156,30.273,16.602,69.336,0
1528295668.030,28.809,34.668,30.762,28.320,17.090,0
1528295668.034,53.223,30.762,28.809,42.969,9.277,0
1528295668.038,41.016,32.715,29.785,34.668,45.898,0
1528295668.042,13.672,32.227,30.762,17.090,102.539,0
1528295668.059,13.184,31.250,33.203,19.531,76.172,0
1528295668.063,51.270,33.691,31.738,30.273,16.602,0
1528295668.067,62.988,33.203,31.250,40.527,40.039,0
1528295668.071,36.133,32.715,36.133,25.879,6.348,0
1528295668.075,14.648,31.738,35.645,13.184,-10.742,0
1528295668.079,17.090,31.738,30.273,27.344,8.789,0
1528295668.083,34.668,31.738,29.785,37.598,41.016,0
1528295668.086,26.855,30.762,33.203,30.762,67.871,0
1528295668.090,12.207,27.344,35.156,21.484,49.316,0
1528295668.094,24.902,24.902,33.203,34.668,10.742,0
1528295668.098,50.293,27.832,34.668,57.617,18.555,0
1528295668.102,42.480,30.762,36.133,48.340,41.992,0
1528295668.099,16.113,31.738,33.203,29.297,25.391,0
1528295668.103,25.391,33.691,28.320,44.922,35.645,0
1528295668.107,52.734,29.297,31.738,58.594,30.762,0
1528295668.111,47.852,29.297,38.574,45.898,-3.906,0
1528295668.115,25.391,31.738,38.574,38.086,-5.371,0
1528295668.119,20.020,29.785,35.645,37.598,20.996,0
1528295668.123,45.898,31.250,33.203,43.945,10.742,0
1528295668.126,68.848,35.156,32.227,47.852,33.691,0
1528295668.130,50.781,40.039,31.250,31.738,25.391,0
1528295668.134,24.902,40.039,33.203,23.926,16.113,0
1528295668.138,40.527,37.109,35.156,35.645,-15.625,0
1528295668.142,67.383,32.227,35.156,40.527,-58.105,0
1528295668.140,42.969,27.832,28.809,30.273,19.531,0
1528295668.144,15.137,33.203,25.391,32.227,52.246,0
1528295668.148,19.531,33.691,27.344,35.645,29.785,0
1528295668.152,39.551,28.320,26.855,36.621,36.133,0
1528295668.156,33.691,34.180,29.297,38.086,51.270,0
1528295668.160,15.137,38.086,32.715,23.926,54.688,0
1528295668.164,26.367,34.180,32.227,22.461,62.500,0
1528295668.167,39.062,34.668,29.785,34.668,69.824,0
1528295668.171,41.504,37.598,28.809,33.691,74.707,0
1528295668.175,26.367,38.574,27.832,22.461,63.477,0
1528295668.179,18.555,37.598,26.855,23.438,23.438,0
1528295668.183,49.316,33.203,24.902,39.062,0.000,0
1528295668.200,58.105,34.180,22.949,43.945,61.035,0
1528295668.204,30.273,34.668,21.484,31.250,94.238,0
1528295668.208,20.996,33.203,20.508,32.227,66.895,0
1528295668.212,44.922,34.668,26.855,46.387,85.938,0
1528295668.216,63.477,34.668,29.297,37.109,77.637,0
1528295668.220,33.203,33.203,34.668,24.414,-13.184,0
1528295668.224,6.348,31.738,36.133,20.996,8.789,0
1528295668.227,16.602,27.832,28.809,27.344,50.293,0
1528295668.231,49.805,29.297,28.809,41.016,20.996,0
1528295668.235,49.316,31.250,31.738,36.621,47.852,0
1528295668.239,19.531,31.738,31.738,23.438,50.293,0
1528295668.243,28.320,33.691,31.250,29.297,6.836,0
1528295668.238,44.434,27.832,30.273,44.434,71.289,0
1528295668.242,33.203,25.391,32.227,44.434,47.363,0
1528295668.246,19.531,32.227,34.668,30.273,41.504,0
1528295668.250,17.578,34.180,34.668,24.414,23.438,0
1528295668.254,33.691,31.738,30.273,29.785,2.441,0
1528295668.258,43.945,33.203,27.344,30.762,11.230,0
1528295668.262,33.691,34.668,29.297,19.043,4.395,0
1528295668.265,28.809,32.227,30.762,14.648,30.762,0
1528295668.269,25.879,29.785,30.762,36.133,39.062,0
1528295668.273,37.109,30.762,31.738,38.086,25.391,0
1528295668.277,34.668,35.156,28.809,22.461,18.555,0
1528295668.281,9.766,35.645,28.320,15.625,16.113,0
1528295668.279,21.484,36.621,28.809,21.973,-33.691,0
1528295668.283,49.316,37.598,27.832,38.086,18.555,0
1528295668.287,38.574,35.645,28.809,33.203,59.082,0
1528295668.291,19.043,36.621,29.785,20.020,-14.160,0
1528295668.295,29.297,39.551,27.832,21.484,-21.484,0
1528295668.299,47.852,40.527,25.391,36.621,-0.977,0
1528295668.303,49.316,40.039,25.391,56.641,7.324,0
1528295668.306,35.156,38.574,27.344,39.062,7.812,0
1528295668.310,35.156,35.156,28.320,15.625,61.523,0
1528295668.314,50.293,34.668,27.344,35.645,65.430,0
1528295668.318,51.758,30.762,25.391,51.270,-28.809,0
1528295668.322,39.062,26.855,31.250,47.852,-67.383,0
1528295668.339,20.996,31.738,39.551,41.504,7.324,0
1528295668.343,28.809,31.738,38.086,41.504,20.508,0
1528295668.347,39.062,29.297,38.086,49.805,61.523,0
1528295668.351,22.461,32.227,37.109,45.410,58.594,0
1528295668.355,13.672,30.762,33.691,31.250,-21.484,0
1528295668.359,11.719,26.855,35.156,33.691,-25.879,0
1528295668.363,38.574,27.344,33.203,43.457,-41.504,0
1528295668.366,50.293,30.762,31.250,41.016,-32.715,0
1528295668.370,13.672,34.180,33.691,33.203,-17.090,0
1528295668.374,7.812,35.156,35.156,31.250,-32.227,0
1528295668.378,31.250,34.180,33.691,40.527,-30.762,0
1528295668.382,43.457,28.809,33.203,35.156,-1.465,0
1528295668.379,36.621,28.320,36.133,25.879,34.180,0
1528295668.383,28.809,31.738,38.086,30.273,9.277,0
1528295668.387,31.250,33.203,32.227,31.738,34.180,0
1528295668.391,46.387,32.715,28.809,34.180,67.871,0
1528295668.395,39.551,32.715,29.785,22.949,62.988,0
1528295668.399,23.438,32.715,31.250,13.184,82.031,0
1528295668.403,25.391,31.738,30.273,20.508,47.363,0
1528295668.406,40.527,33.203,27.344,31.738,72.266,0
1528295668.410,39.062,32.715,29.297,41.992,64.941,0
1528295668.414,21.973,32.227,31.738,29.297,22.461,0
1528295668.418,28.809,35.645,30.762,18.555,71.777,0
1528295668.422,50.293,37.598,29.297,34.180,98.145,0
1528295668.418,49.316,33.691,27.832,35.645,30.762,0
1528295668.422,24.902,33.203,30.273,24.414,32.715,0
1528295668.426,5.371,33.691,32.227,24.902,61.035,0
1528295668.430,27.344,29.297,29.297,40.527,73.730,0
1528295668.434,47.852,33.203,30.273,46.875,112.305,0
1528295668.438,21.973,38.574,31.250,39.062,47.363,0
1528295668.442,12.207,37.598,29.297,33.203,5.371,0
1528295668.445,33.691,38.574,37.109,33.203,6.836,0
1528295668.449,57.617,38.574,37.598,40.039,23.926,0
1528295668.453,40.039,36.133,36.133,27.832,67.871,0
1528295668.457,11.719,36.621,37.598,12.695,-3.906,0
1528295668.461,27.832,34.180,33.691,26.367,-27.832,0
1528295668.480,62.500,32.715,32.227,43.945,-35.645,0
1528295668.484,60.547,34.668,32.227,37.598,-19.043,0
1528295668.488,34.180,39.551,29.785,26.855,32.227,0
1528295668.492,25.879,37.598,29.785,28.809,24.414,0
1528295668.496,40.527,34.668,28.809,46.387,36.621,0
1528295668.500,39.062,36.133,29.785,47.363,45.410,0
1528295668.504,17.578,37.598,29.785,22.949,21.484,0
1528295668.507,17.090,35.156,28.809,14.648,41.016,0
1528295668.511,40.527,27.832,30.762,32.715,18.066,0
1528295668.515,50.781,23.438,30.273,42.969,-60.059,0
1528295668.519,22.461,26.367,34.668,22.949,-28.320,0
1528295668.523,7.812,30.273,37.598,20.508,-4.395,0
1528295668.520,36.133,29.297,31.250,36.621,43.945,0
1528295668.524,50.781,27.832,26.855,36.133,54.199,0
1528295668.528,20.020,30.273,30.273,21.973,60.547,0
1528295668.532,0.977,30.273,32.227,20.020,29.297,0
1528295668.536,22.461,24.902,33.203,26.855,2.441,0
1528295668.540,45.898,21.973,34.180,39.062,2.930,0
1528295668.544,39.062,28.809,35.156,43.457,32.227,0
1528295668.547,16.602,34.668,36.133,29.785,27.832,0
1528295668.551,12.207,32.715,34.668,29.297,-19.043,0
1528295668.555,34.668,31.738,32.227,39.062,9.766,0
1528295668.559,43.457,31.250,24.414,34.668,43.945,0
1528295668.563,18.066,30.762,25.879,24.902,35.645,0
1528295668.580,3.906,31.738,33.203,26.855,12.695,0
1528295668.584,27.344,31.250,34.668,34.668,49.316,0
1528295668.588,47.852,33.691,36.621,50.781,73.242,0
1528295668.592,35.645,38.086,40.039,44.434,21.973,0
1528295668.596,26.367,39.062,40.527,19.531,2.930,0
1528295668.600,40.039,37.109,35.645,22.949,11.230,0
1528295668.604,54.688,36.133,30.762,36.621,51.758,0
1528295668.607,38.086,38.086,32.715,33.203,81.543,0
1528295668.611,11.230,35.156,34.668,22.461,74.219,0
1528295668.615,30.762,29.785,32.227,23.926,62.988,0
1528295668.619,58.105,27.832,31.738,39.062,25.879,0
1528295668.623,34.180,33.691,32.227,43.457,27.344,0
1528295668.620,11.230,37.598,36.133,36.133,59.570,0
1528295668.624,20.020,35.156,36.133,34.668,38.086,0
1528295668.628,46.875,34.668,32.715,32.227,13.672,0
1528295668.632,58.594,30.273,29.297,29.297,-7.812,0
1528295668.636,31.738,24.414,32.227,20.508,-26.855,0
1528295668.640,6.348,22.949,36.133,23.438,0.000,0
1528295668.644,21.973,28.809,32.715,34.668,18.066,0
1528295668.647,44.434,31.738,31.250,34.180,41.504,0
1528295668.651,22.949,28.320,31.250,25.879,82.520,0
1528295668.655,2.930,27.344,31.738,19.531,55.664,0
1528295668.659,16.602,29.297,34.668,28.320,32.227,0
1528295668.663,38.574,29.297,29.785,33.691,51.270,0
1528295668.660,29.297,28.320,25.391,27.344,53.223,0
1528295668.664,7.324,27.344,29.297,21.973,-6.348,0
1528295668.668,19.043,25.879,28.809,13.184,8.301,0
1528295668.672,47.363,26.367,27.832,28.809,83.008,0
1528295668.676,58.594,28.320,29.297,36.133,38.574,0
1528295668.680,26.367,28.809,33.691,23.438,-2.930,0
1528295668.684,14.160,26.367,30.273,19.043,1.465,0
1528295668.687,46.875,23.438,27.344,29.785,45.898,0
1528295668.691,57.617,27.832,36.133,44.922,66.406,0
1528295668.695,32.715,36.133,38.086,29.297,10.254,0
1528295668.699,15.137,37.109,34.668,20.020,-35.645,0
1528295668.703,36.621,33.203,30.273,32.715,12.695,0
1528295668.719,62.500,32.227,30.762,40.527,53.223,0
1528295668.723,34.180,33.691,34.180,35.156,59.570,0
1528295668.727,10.254,32.227,29.785,19.043,51.270,0
1528295668.731,23.438,28.809,25.879,13.184,-27.344,0
1528295668.735,35.156,27.832,24.902,24.414,11.230,0
1528295668.739,40.527,32.715,31.250,28.809,48.828,0
1528295668.743,25.391,31.738,33.691,25.879,68.359,0
1528295668.746,13.184,26.855,27.832,28.809,75.684,0
1528295668.750,35.156,25.879,29.785,39.062,3.418,0
1528295668.754,43.457,26.367,32.715,44.434,6.836,0
1528295668.758,31.738,27.832,31.250,37.598,33.691,0
1528295668.762,24.414,30.273,31.738,34.180,-0.488,0
1528295668.758,38.574,33.203,27.832,39.551,3.906,0
1528295668.762,53.223,33.203,25.879,40.527,49.316,0
1528295668.766,39.062,35.156,27.832,30.762,31.250,0
1528295668.770,19.043,35.156,30.273,15.137,14.648,0
1528295668.774,22.949,31.738,30.273,24.902,35.156,0
1528295668.778,38.574,29.785,29.785,38.086,79.102,0
1528295668.782,30.762,31.738,35.645,28.809,30.273,0
1528295668.785,15.625,33.691,37.109,15.137,-38.574,0
1528295668.789,26.367,29.785,30.273,10.742,18.555,0
1528295668.793,55.664,29.297,25.879,26.367,69.336,0
1528295668.797,54.688,33.203,28.320,33.691,61.523,0
1528295668.801,21.973,31.250,26.367,18.066,29.785,0
1528295668.799,18.066,28.320,26.367,14.648,13.672,0
1528295668.803,49.316,29.297,28.809,32.715,20.508,0
1528295668.807,58.105,27.832,30.762,39.551,58.105,0
1528295668.811,29.297,27.344,34.180,33.691,59.082,0
1528295668.815,12.695,28.320,32.715,35.156,38.086,0
1528295668.819,30.762,25.879,30.273,44.434,47.363,0
1528295668.823,46.875,24.414,28.320,53.711,59.570,0
1528295668.826,36.133,26.367,29.785,42.969,82.031,0
1528295668.830,11.719,30.273,34.668,20.996,36.621,0
1528295668.834,12.207,30.762,31.250,23.438,65.430,0
1528295668.838,34.668,30.273,28.320,38.086,86.426,0
1528295668.842,34.180,31.738,31.738,38.086,34.180,0
1528295668.857,21.484,34.668,35.645,29.785,11.719,0
1528295668.861,26.855,33.203,37.598,40.527,20.996,0
1528295668.865,51.270,26.367,37.109,48.828,20.996,0
1528295668.869,53.223,27.344,34.180,38.086,18.555,0
1528295668.873,17.090,31.738,31.250,33.203,-49.316,0
1528295668.877,12.695,28.809,28.809,24.414,-61.035,0
1528295668.881,36.133,26.855,27.832,30.762,42.969,0
1528295668.884,33.203,29.785,26.367,44.434,44.434,0
1528295668.888,20.020,28.809,26.367,30.762,17.090,0
1528295668.892,18.555,30.762,29.785,22.949,21.973,0
1528295668.896,36.621,32.227,28.809,36.133,12.695,0
1528295668.900,51.758,33.203,26.855,32.227,27.832,0
1528295668.900,40.527,37.109,25.391,16.113,14.648,0
1528295668.904,20.508,36.133,24.902,12.695,22.461,0
1528295668.908,30.273,34.668,24.414,26.367,41.992,0
1528295668.912,63.965,34.668,24.902,38.574,28.320,0
1528295668.916,53.711,36.133,32.227,37.109,7.812,0
1528295668.920,16.113,36.133,37.109,28.809,-26.855,0
1528295668.924,22.949,33.691,29.785,27.344,7.324,0
1528295668.927,52.246,31.738,23.926,36.133,43.945,0
1528295668.931,42.969,32.715,26.367,34.668,23.438,0
1528295668.935,8.301,31.738,31.250,20.508,41.992,0
1528295668.939,-1.465,30.273,37.598,20.508,59.082,0
1528295668.943,33.203,29.297,33.691,36.133,43.945,0
1528295668.940,45.410,27.832,31.250,40.039,24.414,0
1528295668.944,10.742,25.879,31.250,26.367,-25.879,0
1528295668.948,-0.977,23.926,30.273,22.949,36.621,0
1528295668.952,26.367,27.344,30.273,35.645,56.641,0
1528295668.956,44.434,27.832,31.250,45.898,22.461,0
1528295668.960,30.273,30.273,33.691,43.945,-10.254,0
1528295668.964,20.508,31.738,34.180,29.297,24.902,0
1528295668.967,38.086,28.320,33.203,25.391,53.711,0
1528295668.971,56.641,29.297,34.668,37.598,5.371,0
1528295668.975,48.828,34.180,35.156,35.156,16.113,0
1528295668.979,35.156,33.203,34.668,21.973,6.836,0
1528295668.983,38.574,31.738,33.691,33.203,21.484,0
1528295669.000,59.570,34.180,31.738,51.270,23.926,0
1528295669.004,61.035,39.062,33.203,35.645,-7.812,0
1528295669.008,38.574,41.504,32.227,20.508,-4.395,0
1528295669.012,27.832,38.574,22.949,20.996,-19.531,0
1528295669.016,43.457,35.156,21.484,38.086,13.672,0
1528295669.020,57.617,35.156,27.832,45.410,87.402,0
1528295669.024,35.156,35.156,34.668,27.832,30.762,0
1528295669.027,30.762,32.715,35.645,16.113,3.418,0
1528295669.031,48.828,34.180,31.250,27.344,77.637,0
1528295669.035,53.711,38.086,33.691,38.086,94.727,0
1528295669.039,42.969,39.551,39.062,30.273,66.406,0
1528295669.043,16.113,35.156,38.086,17.090,36.133,0
1528295669.040,17.090,30.273,31.250,18.555,-2.441,0
1528295669.044,47.363,29.297,29.297,41.504,32.715,0
1528295669.048,45.410,28.320,34.668,45.898,83.008,0
1528295669.052,20.996,31.738,39.551,37.598,13.184,0
1528295669.056,19.531,35.645,40.039,40.527,-7.812,0
1528295669.060,47.363,33.691,39.062,49.805,63.965,0
1528295669.064,52.734,35.645,37.109,44.434,75.195,0
1528295669.067,38.574,39.062,37.598,31.738,47.363,0
1528295669.071,45.410,41.016,38.574,32.715,55.664,0
1528295669.075,49.805,40.527,39.551,50.781,31.738,0
1528295669.079,50.293,38.574,38.574,47.852,-12.207,0
1528295669.083,47.363,34.180,35.645,27.344,20.020,0
1528295669.080,25.391,33.203,35.645,24.902,49.805,0
1528295669.084,29.785,37.109,35.645,37.109,27.344,0
1528295669.088,61.035,39.551,35.645,51.270,45.410,0
1528295669.092,47.852,42.480,36.133,39.062,27.832,0
1528295669.096,29.785,42.480,38.574,23.438,-41.504,0
1528295669.100,37.109,41.992,38.086,31.738,6.348,0
1528295669.104,46.875,40.039,37.598,41.992,50.293,0
1528295669.107,47.363,37.109,37.109,34.180,0.488,0
1528295669.111,21.973,35.156,36.621,16.113,-41.992,0
1528295669.115,14.160,32.715,38.574,8.789,-7.812,0
1528295669.119,37.109,30.762,36.133,31.738,7.324,0
1528295669.123,45.410,33.203,33.203,35.645,-5.371,0
1528295669.140,24.414,35.156,31.250,16.602,19.043,0
1528295669.144,7.324,33.691,30.762,17.578,23.438,0
1528295669.148,29.785,32.715,32.227,31.738,18.555,0
1528295669.152,51.270,34.668,32.227,34.180,55.664,0
1528295669.156,35.156,36.133,31.738,29.297,37.598,0
1528295669.160,11.719,34.180,32.227,21.484,19.531,0
1528295669.164,15.625,31.250,31.250,23.438,10.742,0
1528295669.167,47.363,28.320,30.273,39.551,-5.859,0
1528295669.171,43.945,27.832,29.297,29.785,21.484,0
1528295669.175,19.531,28.809,31.738,10.254,9.766,0
1528295669.179,26.367,25.879,33.691,14.648,-21.973,0
1528295669.183,44.922,24.414,30.762,25.391,57.129,0
1528295669.180,38.574,23.926,29.785,20.020,67.871,0
1528295669.184,13.184,26.855,32.227,6.836,20.508,0
1528295669.188,17.090,27.344,34.180,12.207,25.879,0
1528295669.192,39.062,26.367,34.180,31.738,31.250,0
1528295669.196,38.086,28.809,36.621,32.715,88.379,0
1528295669.200,23.926,29.785,40.039,21.973,46.387,0
1528295669.204,15.137,30.273,36.133,19.043,29.785,0
1528295669.207,28.809,31.250,32.227,26.855,57.617,0
1528295669.211,52.246,32.227,33.203,33.691,11.719,0
1528295669.215,40.527,32.715,34.668,25.391,17.578,0
1528295669.219,13.184,32.715,36.621,8.789,35.645,0
1528295669.223,25.391,29.297,34.180,16.602,-5.371,0
1528295669.220,39.062,23.438,34.180,26.855,12.207,0
1528295669.224,25.391,23.438,38.574,20.508,33.691,0
1528295669.228,9.277,27.832,35.645,15.625,8.789,0
1528295669.232,11.230,26.855,32.715,24.902,30.762,0
1528295669.236,40.527,24.414,27.344,48.340,57.617,0
1528295669.240,49.316,27.832,28.809,45.898,15.137,0
1528295669.244,27.344,30.762,38.086,24.414,-4.883,0
1528295669.247,19.043,28.809,37.109,23.926,20.996,0
1528295669.251,41.504,25.391,34.668,30.762,64.941,0
1528295669.255,54.199,27.344,34.180,31.250,22.461,0
1528295669.259,28.809,29.785,35.156,33.203,2.441,0
1528295669.263,14.160,30.762,35.645,27.832,51.270,0
1528295669.279,22.461,30.762,36.621,28.320,-2.930,0
1528295669.283,49.316,32.715,29.785,42.969,-12.695,0
1528295669.287,52.734,35.156,27.344,34.180,62.012,0
1528295669.291,18.066,34.668,30.762,14.648,32.227,0
1528295669.295,18.555,30.762,26.855,25.391,24.414,0
1528295669.299,43.457,32.715,24.414,33.691,27.832,0
1528295669.303,30.273,36.621,24.414,17.090,2.930,0
1528295669.306,10.742,37.109,23.926,3.418,5.371,0
1528295669.310,12.695,37.109,21.973,11.719,32.227,0
1528295669.314,37.598,35.156,22.461,30.762,91.309,0
1528295669.318,52.734,35.156,24.902,37.109,69.336,0
1528295669.322,25.391,38.086,26.367,28.320,30.762,0
1528295669.319,11.230,37.598,26.367,24.902,29.297,0
1528295669.323,42.480,36.621,25.391,36.133,53.711,0
1528295669.327,51.758,32.715,26.367,35.645,9.277,0
1528295669.331,20.020,33.203,28.320,24.902,-21.973,0
1528295669.335,4.395,36.621,28.320,21.973,-13.184,0
1528295669.339,26.367,34.180,30.273,33.691,8.301,0
1528295669.343,46.387,32.227,31.250,35.645,12.207,0
1528295669.346,32.227,33.203,31.738,26.855,-0.488,0
1528295669.350,21.973,30.273,26.367,23.438,-41.992,0
1528295669.354,36.133,34.180,27.832,25.879,-37.109,0
1528295669.358,43.945,38.086,31.250,42.480,0.977,0
1528295669.362,35.645,34.668,30.273,42.969,22.949,0
1528295669.359,21.484,39.062,35.645,25.879,35.156,0
1528295669.363,23.926,39.551,37.598,27.832,11.230,0
1528295669.367,58.594,34.668,36.133,42.969,4.883,0
1528295669.371,70.801,38.086,34.668,41.992,23.438,0
1528295669.375,33.203,40.039,35.156,35.645,11.719,0
1528295669.379,8.789,38.086,30.762,28.809,22.461,0
1528295669.383,26.367,36.133,27.832,31.738,-3.418,0
1528295669.386,37.598,33.691,31.738,43.945,-7.812,0
1528295669.390,19.531,34.180,32.227,34.668,34.180,0
1528295669.394,10.254,36.133,31.250,24.902,11.230,0
1528295669.398,19.531,30.762,31.250,35.645,27.344,0
1528295669.402,38.086,24.902,28.809,50.293,79.590,0
1528295669.419,29.297,30.273,28.809,39.062,52.734,0
1528295669.423,4.395,33.203,27.832,19.043,-0.488,0
1528295669.427,14.648,28.320,25.879,26.367,2.441,0
1528295669.431,41.992,29.297,26.367,41.992,53.223,0
1528295669.435,41.016,31.250,29.297,35.645,59.082,0
1528295669.439,10.742,29.297,36.133,24.414,-9.766,0
1528295669.443,8.789,28.809,34.180,29.297,-1.953,0
1528295669.446,47.363,30.273,26.855,35.156,57.129,0
1528295669.450,53.711,31.738,25.391,31.738,41.504,0
1528295669.454,24.414,31.250,21.484,23.438,29.785,0
1528295669.458,19.043,32.227,21.484,19.531,44.922,0
1528295669.462,40.039,33.691,29.785,35.156,71.289,0
1528295669.460,51.758,32.715,31.738,45.410,21.973,0
1528295669.464,36.621,33.203,30.762,31.738,21.973,0
1528295669.468,23.438,31.250,31.738,19.531,31.250,0
1528295669.472,39.062,29.297,28.809,23.926,39.551,0
1528295669.476,48.828,32.715,26.367,36.621,88.379,0
1528295669.480,31.250,35.645,29.785,33.203,76.660,0
1528295669.484,16.113,35.156,31.250,30.762,8.301,0
1528295669.487,23.926,33.691,30.762,29.297,-36.133,0
1528295669.491,52.246,29.785,32.715,41.504,-1.953,0
1528295669.495,55.176,32.715,35.156,51.758,4.395,0
1528295669.499,27.344,33.691,32.227,31.738,17.578,0
1528295669.503,18.066,32.715,27.344,28.320,-13.672,0
1528295669.498,36.621,33.203,25.879,41.504,-19.043,0
1528295669.502,47.363,34.180,28.320,37.109,-12.695,0
1528295669.506,22.949,39.551,34.180,28.320,-6.836,0
1528295669.510,4.883,41.504,34.180,32.227,2.441,0
1528295669.514,17.578,40.039,29.785,37.598,-9.766,0
1528295669.518,41.992,36.133,31.250,43.945,21.484,0
1528295669.522,40.527,35.645,30.273,41.992,18.555,0
1528295669.525,24.414,39.062,32.227,30.273,1.953,0
1528295669.529,27.344,38.086,33.203,29.297,21.973,0
1528295669.533,52.246,34.180,30.762,34.668,30.762,0
1528295669.537,44.922,32.715,33.203,31.738,52.734,0
1528295669.541,24.902,33.691,35.156,29.785,50.293,0
1528295669.560,22.949,36.133,32.715,22.949,8.301,0
1528295669.564,37.109,32.715,31.250,23.926,18.066,0
1528295669.568,42.969,31.250,33.691,30.762,54.199,0
1528295669.572,17.578,32.715,37.109,23.438,47.363,0
1528295669.576,5.371,33.203,31.250,14.160,33.203,0
1528295669.580,26.855,30.762,25.391,24.414,2.930,0
1528295669.584,37.109,29.785,32.715,31.250,-6.836,0
1528295669.587,22.949,31.250,37.109,20.508,22.461,0
1528295669.591,19.531,33.203,34.668,13.672,5.859,0
1528295669.595,32.227,33.203,32.715,25.391,50.781,0
1528295669.599,46.387,33.203,34.180,42.969,95.215,0
1528295669.603,28.320,36.621,35.645,40.527,91.797,0
1528295669.600,8.301,38.574,34.668,21.973,42.480,0
1528295669.604,21.484,35.156,34.180,25.391,11.719,0
1528295669.608,44.434,31.738,29.785,43.457,38.574,0
1528295669.612,34.180,38.086,28.809,48.340,34.180,0
1528295669.616,9.277,41.016,31.250,35.645,28.320,0
1528295669.620,16.113,39.551,33.203,27.344,33.203,0
1528295669.624,51.270,38.574,31.738,29.297,-7.324,0
1528295669.627,62.500,37.598,28.809,23.926,-19.531,0
1528295669.631,47.363,38.086,33.691,21.973,30.273,0
1528295669.635,26.855,41.016,38.086,17.090,40.039,0
1528295669.639,35.645,42.480,34.668,28.809,10.254,0
1528295669.643,54.199,35.156,29.785,44.922,15.137,0
1528295669.640,30.762,35.156,28.320,28.320,45.410,0
1528295669.644,19.043,40.527,31.250,17.578,41.992,0
1528295669.648,33.203,39.551,34.668,27.344,22.949,0
1528295669.652,54.199,39.062,33.203,37.598,37.598,0
1528295669.656,54.688,41.016,35.645,33.203,43.457,0
1528295669.660,27.832,41.016,40.039,21.484,35.645,0
1528295669.664,32.227,35.156,35.645,31.738,29.297,0
1528295669.667,49.316,31.250,32.715,45.898,0.000,0
1528295669.671,39.551,33.691,33.691,38.574,31.738,0
1528295669.675,29.785,38.574,35.156,25.879,48.340,0
1528295669.679,29.297,38.574,39.062,24.414,6.836,0
1528295669.683,48.828,34.668,37.109,37.109,42.480,0
1528295669.699,43.945,36.621,30.762,40.039,70.801,0
1528295669.703,24.902,37.109,32.227,19.531,28.320,0
1528295669.707,17.578,34.668,36.621,12.207,-4.883,0
1528295669.711,30.762,35.156,32.227,32.227,-30.273,0
1528295669.715,46.875,34.180,31.250,53.711,38.574,0
1528295669.719,29.785,34.180,38.086,40.527,104.004,0
1528295669.723,11.230,38.086,36.621,13.672,48.828,0
1528295669.726,23.926,39.062,29.785,28.320,3.906,0
1528295669.730,49.316,38.086,32.715,56.641,55.664,0
1528295669.734,49.316,37.598,33.691,49.805,60.547,0
1528295669.738,32.227,36.621,32.227,26.855,-28.320,0
1528295669.742,24.902,35.156,29.785,24.414,-28.320,0
1528295669.739,42.480,31.250,26.367,39.062,18.555,0
1528295669.743,49.805,32.715,30.762,38.574,65.430,0
1528295669.747,33.691,39.551,32.227,23.438,62.500,0
1528295669.751,19.043,42.480,30.762,20.020,36.133,0
1528295669.755,31.738,42.480,33.203,30.762,63.477,0
1528295669.759,47.852,42.480,34.180,35.645,54.199,0
1528295669.763,31.250,43.945,33.691,25.879,30.273,0
1528295669.766,25.391,43.945,34.180,25.391,32.715,0
1528295669.770,43.457,40.527,30.273,31.738,51.270,0
1528295669.774,52.246,37.109,28.320,37.109,39.062,0
1528295669.778,47.363,33.691,31.738,33.691,-16.602,0
1528295669.782,29.785,34.180,32.715,21.973,4.883,0
1528295669.780,22.949,34.668,27.832,34.668,70.801,0
1528295669.784,39.551,32.715,24.902,50.781,118.652,0
1528295669.788,31.250,34.180,25.879,33.691,78.613,0
1528295669.792,7.324,33.203,24.414,20.020,3.906,0
1528295669.796,8.301,31.250,28.809,20.996,56.152,0
1528295669.800,37.598,29.785,34.180,37.598,74.219,0
1528295669.804,47.363,30.273,33.203,44.434,15.137,0
1528295669.807,18.555,36.133,36.133,26.855,15.625,0
1528295669.811,17.090,37.109,37.109,26.367,49.316,0
1528295669.815,44.922,34.180,32.227,36.133,85.938,0
1528295669.819,54.688,35.156,31.738,38.086,92.773,0
1528295669.823,29.297,38.574,34.668,42.969,80.566,0
1528295669.840,13.672,35.156,36.621,33.691,29.297,0
1528295669.844,42.480,30.762,31.738,31.250,-1.953,0
1528295669.848,66.895,35.156,28.809,40.039,35.645,0
1528295669.852,48.340,39.551,34.180,34.180,14.648,0
1528295669.856,24.902,41.504,34.180,24.902,-31.250,0
1528295669.860,37.109,40.039,32.715,25.391,41.016,0
1528295669.864,62.988,35.645,30.762,36.621,80.078,0
1528295669.867,52.246,31.738,29.297,50.293,60.547,0
1528295669.871,22.461,32.227,34.668,42.969,33.691,0
1528295669.875,23.926,32.715,31.738,26.367,41.504,0
1528295669.879,54.199,30.762,29.785,33.203,31.738,0
1528295669.883,59.082,31.738,34.668,31.250,44.434,0
1528295669.880,29.785,36.621,34.180,20.996,44.922,0
1528295669.884,20.020,39.062,31.250,26.367,-9.766,0
1528295669.888,31.738,39.551,31.738,44.434,-22.461,0
1528295669.892,42.969,35.645,33.691,47.852,-15.137,0
1528295669.896,38.574,37.109,36.621,31.738,11.230,0
1528295669.900,26.367,40.039,37.598,22.461,-13.184,0
1528295669.904,28.809,37.109,34.180,32.227,-29.297,0
1528295669.907,50.293,31.738,33.203,40.527,13.184,0
1528295669.911,40.527,28.320,35.645,34.668,65.430,0
1528295669.915,14.160,33.691,37.109,31.250,47.852,0
1528295669.919,23.438,34.668,27.832,32.715,22.461,0
1528295669.923,44.922,30.762,27.344,36.621,14.160,0
1528295669.920,47.852,30.762,34.668,39.062,45.898,0
1528295669.924,28.809,33.691,37.598,34.180,15.137,0
1528295669.928,31.738,34.668,36.621,29.297,-45.410,0
1528295669.932,56.152,34.668,33.203,44.922,-27.344,0
1528295669.936,52.246,36.621,34.668,45.898,5.859,0
1528295669.940,24.902,35.645,39.551,34.668,31.738,0
1528295669.944,15.137,32.715,40.039,40.527,35.645,0
1528295669.947,37.109,32.227,34.668,48.340,70.801,0
1528295669.951,58.105,34.180,29.785,46.875,62.012,0
1528295669.955,41.016,35.156,29.297,34.668,20.996,0
1528295669.959,22.461,34.180,29.297,29.785,34.180,0
1528295669.963,40.527,33.691,30.762,40.039,30.762,0
1528295669.980,57.129,33.203,34.180,45.410,34.180,0
1528295669.984,38.574,32.227,37.109,33.691,47.852,0
1528295669.988,14.648,34.180,38.086,27.344,0.000,0
1528295669.992,26.367,33.691,35.645,26.367,13.672,0
1528295669.996,58.105,32.227,32.715,36.133,21.484,0
1528295670.000,52.246,38.086,37.109,41.992,43.457,0
1528295670.004,32.227,39.551,39.062,28.320,93.262,0
1528295670.007,31.250,34.668,37.109,28.809,62.012,0
1528295670.011,42.969,34.668,34.668,42.480,69.336,0
1528295670.015,52.246,31.738,34.668,41.016,29.785,0
1528295670.019,26.855,30.762,37.109,23.926,40.527,0
1528295670.023,1.465,29.785,39.062,13.184,92.285,0
1528295670.019,21.973,28.809,38.086,24.902,93.262,0
1528295670.023,42.969,29.785,37.109,31.738,69.824,0
1528295670.027,28.809,34.180,41.504,25.391,40.527,0
1528295670.031,21.973,38.086,45.410,24.902,-5.371,0
1528295670.035,36.621,37.109,42.480,31.250,-27.344,0
1528295670.039,48.828,37.109,35.645,42.480,33.203,0
1528295670.043,41.016,37.109,34.668,38.086,96.191,0
1528295670.046,20.020,33.691,36.133,17.090,54.688,0
1528295670.050,18.555,34.668,39.062,18.066,-41.992,0
1528295670.054,37.109,35.645,30.273,29.785,-21.973,0
1528295670.058,50.781,35.645,27.344,34.668,46.875,0
1528295670.062,31.250,38.574,35.645,21.484,7.812,0
1528295670.058,22.461,38.574,39.551,14.648,-27.344,0
1528295670.062,48.828,34.180,39.551,32.715,64.941,0
1528295670.066,49.316,29.785,32.227,35.645,81.543,0
1528295670.070,29.785,33.691,27.832,22.949,5.371,0
1528295670.074,13.184,38.086,30.273,23.438,18.555,0
1528295670.078,19.043,35.645,33.691,31.738,36.621,0
1528295670.082,46.875,35.645,33.691,40.527,35.645,0
1528295670.085,43.457,39.062,31.250,32.715,25.879,0
1528295670.089,23.438,36.621,28.809,20.020,-40.527,0
1528295670.093,33.691,35.156,31.738,22.949,23.438,0
1528295670.097,46.387,36.133,30.762,29.297,29.297,0
1528295670.101,31.250,34.668,30.762,21.484,-32.227,0
1528295670.120,14.160,37.109,34.668,7.812,7.324,0
1528295670.124,16.602,37.109,33.203,6.836,18.555,0
1528295670.128,30.273,35.645,27.344,29.297,25.391,0
1528295670.132,42.480,34.668,25.879,38.574,39.062,0
1528295670.136,28.809,36.621,31.738,23.926,69.824,0
1528295670.140,16.602,38.574,37.109,19.043,41.992,0
1528295670.144,30.762,37.109,34.180,25.391,11.230,0
1528295670.147,47.852,38.086,30.762,33.691,35.645,0
1528295670.151,32.227,35.645,34.180,32.227,-1.953,0
1528295670.155,12.207,36.133,37.109,25.879,-21.484,0
1528295670.159,24.902,37.109,36.621,26.367,-6.836,0
1528295670.163,48.340,35.645,33.203,35.156,26.367,0
1528295670.158,34.668,35.645,33.203,31.738,78.613,0
1528295670.162,14.648,36.621,40.039,24.414,53.223,0
1528295670.166,34.180,39.062,42.480,34.668,26.855,0
1528295670.170,50.293,38.574,33.203,45.410,25.879,0
1528295670.174,40.039,41.016,30.762,27.832,38.574,0
1528295670.178,24.902,42.969,36.621,11.719,65.430,0
1528295670.182,33.691,41.016,38.086,13.672,25.879,0
1528295670.185,54.199,39.062,37.598,31.738,32.715,0
1528295670.189,43.945,41.016,39.062,48.340,57.617,0
1528295670.193,20.508,40.039,37.109,34.668,22.949,0
1528295670.197,20.020,38.574,33.203,22.461,31.250,0
1528295670.201,41.016,39.551,32.715,31.738,83.496,0
1528295670.220,54.688,40.527,31.738,45.410,74.707,0
1528295670.224,33.203,41.992,36.621,34.180,-15.625,0
1528295670.228,17.090,41.016,37.109,18.066,-85.449,0
1528295670.232,38.086,38.086,33.203,30.273,-75.684,0
1528295670.236,51.270,37.109,32.227,36.621,14.648,0
1528295670.240,22.949,38.574,31.738,26.855,62.988,0
1528295670.244,-1.953,37.598,33.691,20.996,34.180,0
1528295670.247,1.465,31.738,31.738,20.020,9.277,0
1528295670.251,37.109,30.762,23.926,32.227,34.180,0
1528295670.255,45.410,38.574,29.785,36.621,25.879,0
1528295670.259,24.414,39.062,35.645,28.809,12.207,0
1528295670.263,19.531,35.156,34.668,30.762,-18.555,0
1528295670.260,41.504,33.203,36.621,36.621,-6.348,0
1528295670.264,55.176,32.227,33.691,42.480,24.414,0
1528295670.268,21.484,32.715,29.785,27.832,-12.695,0
1528295670.272,0.977,34.668,28.320,16.602,20.508,0
1528295670.276,25.391,34.668,35.645,31.738,35.645,0
1528295670.280,49.805,31.738,40.527,41.504,36.133,0
1528295670.284,38.574,30.762,39.551,32.715,40.039,0
1528295670.287,14.648,31.250,37.598,21.973,34.668,0
1528295670.291,26.367,28.320,33.691,34.668,15.625,0
1528295670.295,65.430,24.414,33.203,44.434,3.906,0
1528295670.299,54.199,27.832,38.086,29.785,-11.230,0
1528295670.303,10.742,33.691,40.527,22.949,5.859,0
1528295670.300,12.695,32.227,38.574,35.156,77.637,0
1528295670.304,44.434,30.273,34.180,44.922,74.707,0
1528295670.308,51.270,33.691,32.715,44.434,43.945,0
1528295670.312,28.809,33.691,35.156,36.621,13.672,0
1528295670.316,21.484,29.785,34.668,27.832,-6.836,0
1528295670.320,38.086,29.785,34.668,39.551,-0.488,0
1528295670.324,54.688,31.738,35.645,52.734,-4.883,0
1528295670.327,31.250,32.715,35.645,39.062,-25.879,0
1528295670.331,14.648,35.645,36.621,28.809,-10.254,0
1528295670.335,30.273,37.109,36.621,31.738,46.875,0
1528295670.339,59.082,36.133,35.645,44.922,73.730,0
1528295670.343,57.129,35.645,38.574,47.852,43.945,0
1528295670.360,19.531,34.668,40.039,36.621,48.340,0
1528295670.364,19.043,36.133,38.086,36.133,45.410,0
1528295670.368,54.199,36.621,32.715,48.828,7.324,0
1528295670.372,51.270,34.668,32.227,41.504,53.711,0
1528295670.376,26.367,35.156,32.715,31.738,46.387,0
1528295670.380,27.832,37.598,32.715,35.645,-14.160,0
1528295670.384,36.621,37.109,34.668,44.922,-1.953,0
1528295670.387,38.086,37.598,31.738,44.922,52.734,0
1528295670.391,25.879,39.062,32.227,33.203,50.293,0
1528295670.395,17.090,35.156,30.762,31.738,27.832,0
1528295670.399,43.945,34.180,26.855,44.922,60.059,0
1528295670.403,52.734,36.133,33.691,44.434,89.355,0
1528295670.400,25.391,31.738,40.039,26.855,37.109,0
1528295670.404,12.695,30.762,37.598,21.484,-12.695,0
1528295670.408,31.738,38.086,33.203,37.598,-10.742,0
1528295670.412,50.781,40.039,32.715,45.898,-1.465,0
1528295670.416,47.363,40.039,35.645,25.879,58.594,0
1528295670.420,20.996,39.062,38.574,20.020,4.395,0
1528295670.424,10.742,30.762,39.551,30.273,-20.020,0
1528295670.427,38.086,26.855,36.621,43.945,44.922,0
1528295670.431,48.340,31.250,31.738,40.039,65.918,0
1528295670.435,25.391,31.250,33.203,36.133,3.418,0
1528295670.439,23.438,29.297,36.133,43.945,0.488,0
1528295670.443,44.434,30.762,30.762,40.039,-4.883,0
1528295670.439,44.922,31.738,30.273,34.180,9.766,0
1528295670.443,29.785,32.715,34.668,25.879,26.367,0
1528295670.447,21.973,35.645,33.691,29.297,-8.301,0
1528295670.451,40.527,36.133,33.691,46.875,-10.742,0
1528295670.455,52.734,35.156,32.227,48.828,-16.113,0
1528295670.459,44.434,33.691,31.250,45.410,0.977,0
1528295670.463,32.715,30.762,34.668,34.668,49.805,0
1528295670.466,34.180,32.227,34.180,33.203,63.477,0
1528295670.470,57.617,33.203,29.297,49.316,34.668,0
1528295670.474,56.152,29.785,28.320,38.574,54.688,0
1528295670.478,25.879,32.227,27.344,30.762,51.758,0
1528295670.482,25.391,33.203,20.996,30.762,-9.766,0
1528295670.500,39.551,29.785,22.461,34.180,-13.672,0
1528295670.504,27.344,31.250,30.273,32.227,0.977,0
1528295670.508,6.836,30.762,33.691,21.973,1.465,0
1528295670.512,13.184,28.809,34.668,22.949,2.441,0
1528295670.516,43.457,29.785,32.227,30.762,60.059,0
1528295670.520,32.227,30.273,30.273,28.320,63.965,0
1528295670.524,3.906,34.180,25.879,14.160,-20.996,0
1528295670.527,-2.441,33.691,24.902,7.812,11.719,0
1528295670.531,17.090,30.273,26.855,20.508,36.133,0
1528295670.535,44.434,29.785,28.320,28.809,45.410,0
1528295670.539,35.645,29.297,31.738,25.391,73.242,0
1528295670.543,18.066,31.250,34.668,21.973,-6.348,0
1528295670.540,27.344,32.715,34.180,20.996,-37.109,0
1528295670.544,43.945,31.250,29.785,30.762,44.434,0
1528295670.548,40.527,32.227,28.320,30.273,29.297,0
1528295670.552,24.414,30.762,28.320,11.719,-12.695,0
1528295670.556,13.672,25.879,29.297,13.672,11.230,0
1528295670.560,37.109,27.832,30.762,31.250,64.453,0
1528295670.564,44.922,28.809,33.691,38.574,32.715,0
1528295670.567,21.973,26.367,41.016,38.086,-2.930,0
1528295670.571,13.184,28.809,36.133,22.949,8.301,0
1528295670.575,29.297,27.832,29.297,40.039,40.527,0
1528295670.579,47.852,25.879,32.715,52.734,63.477,0
1528295670.583,29.785,27.344,35.645,26.855,47.852,0
1528295670.580,14.160,27.832,38.086,21.484,6.836,0
1528295670.584,34.180,27.344,36.621,32.227,-15.137,0
1528295670.588,49.805,26.855,29.297,42.969,47.852,0
1528295670.592,33.203,29.785,29.785,41.992,73.242,0
1528295670.596,17.578,30.762,29.297,26.855,3.418,0
1528295670.600,20.020,29.785,28.320,29.785,-54.199,0
1528295670.604,39.551,27.832,28.320,42.969,-23.438,0
1528295670.607,43.457,25.391,29.297,38.574,19.531,0
1528295670.611,18.555,27.344,38.086,24.414,27.344,0
1528295670.615,9.766,27.344,36.621,17.090,-8.789,0
1528295670.619,43.945,24.414,33.203,40.527,-3.418,0
1528295670.623,54.199,27.832,36.133,48.828,47.852,0
1528295670.640,35.156,31.738,37.109,18.555,53.223,0
1528295670.644,20.020,34.180,36.621,13.672,58.105,0
1528295670.648,34.668,36.621,33.691,33.691,22.949,0
1528295670.652,52.734,36.133,32.227,40.527,32.715,0
1528295670.656,31.738,34.668,35.156,31.738,77.148,0
1528295670.660,16.113,32.227,37.598,20.508,48.340,0
1528295670.664,24.414,29.785,35.645,22.949,42.480,0
1528295670.667,41.504,29.785,35.645,36.133,26.855,0
1528295670.671,34.180,30.273,34.180,28.809,38.086,0
1528295670.675,15.625,29.297,35.645,22.461,82.031,0
1528295670.679,20.996,25.391,39.062,31.250,40.527,0
1528295670.683,38.574,25.879,36.133,39.062,47.363,0
1528295670.680,34.180,30.762,37.598,40.527,17.578,0
1528295670.684,12.695,31.738,39.551,30.273,5.371,0
1528295670.688,14.648,30.762,36.133,23.926,41.992,0
1528295670.692,40.527,34.180,36.621,40.039,19.043,0
1528295670.696,48.828,36.133,39.062,52.734,35.156,0
1528295670.700,32.227,35.156,40.527,41.992,33.203,0
1528295670.704,17.090,33.203,35.156,19.531,13.184,0
1528295670.707,30.273,32.227,29.785,24.902,73.242,0
1528295670.711,48.828,34.668,29.297,40.527,47.852,0
1528295670.715,24.414,34.180,32.227,32.227,18.555,0
1528295670.719,-0.488,30.762,34.668,11.719,-14.160,0
1528295670.723,20.508,28.320,28.809,15.625,-13.184,0
1528295670.720,52.246,29.297,25.391,38.574,43.945,0
1528295670.724,47.363,34.180,23.926,34.668,64.941,0
1528295670.728,20.996,37.598,29.297,19.043,54.199,0
1528295670.732,18.555,34.180,32.227,14.160,62.500,0
1528295670.736,43.945,31.738,26.855,31.250,93.262,0
1528295670.740,49.805,32.715,31.738,37.109,45.898,0
1528295670.744,20.508,29.785,33.203,22.949,11.719,0
1528295670.747,11.230,29.297,28.809,22.949,-4.395,0
1528295670.751,43.457,30.762,30.762,33.691,35.645,0
1528295670.755,60.059,32.715,33.203,35.645,58.105,0
1528295670.759,34.668,37.109,36.621,30.762,-13.184,0
1528295670.763,18.555,37.109,38.574,29.297,-34.180,0
1528295670.778,40.039,32.715,35.645,29.297,-54.688,0
1528295670.782,60.059,31.250,33.203,40.039,1.953,0
1528295670.786,41.504,31.250,35.645,35.645,25.391,0
1528295670.790,13.672,30.273,37.109,21.973,-27.832,0
1528295670.794,26.855,28.320,34.180,33.203,25.879,0
1528295670.798,44.922,31.250,34.668,45.410,15.625,0
1528295670.802,26.855,34.668,34.180,25.391,-14.648,0
1528295670.805,11.230,34.180,31.738,8.789,54.688,0
1528295670.809,21.973,32.227,29.785,30.762,38.574,0
1528295670.813,62.500,36.133,27.832,40.039,27.344,0
1528295670.817,62.988,39.062,30.273,24.414,77.148,0
1528295670.821,19.043,36.621,36.621,20.996,23.926,0
1528295670.820,10.254,37.598,37.598,17.090,-3.906,0
1528295670.824,34.180,37.109,34.668,24.902,38.574,0
1528295670.828,48.340,35.645,34.180,33.203,58.105,0
1528295670.832,25.391,37.598,33.691,18.555,22.461,0
1528295670.836,1.953,37.109,32.227,6.348,-0.977,0
1528295670.840,28.809,36.133,32.715,20.020,26.367,0
1528295670.844,49.316,37.109,26.367,35.156,61.035,0
1528295670.847,26.855,36.621,25.879,34.668,52.734,0
1528295670.851,10.254,34.668,37.109,26.367,51.758,0
1528295670.855,16.602,38.574,43.457,27.832,56.152,0
1528295670.859,42.969,37.109,40.039,37.598,41.992,0
1528295670.863,45.410,33.203,38.086,25.879,31.738,0
1528295670.859,16.602,37.109,37.598,13.672,-22.949,0
1528295670.863,14.160,31.738,31.738,13.672,2.441,0
1528295670.867,34.180,28.320,30.273,29.785,29.785,0
1528295670.871,43.457,36.133,34.668,44.922,12.695,0
1528295670.875,20.020,42.480,38.086,33.203,12.695,0
1528295670.879,19.531,43.945,38.086,23.438,31.738,0
1528295670.883,49.805,44.434,35.156,34.668,23.926,0
1528295670.886,52.246,42.969,33.691,45.410,58.105,0
1528295670.890,30.762,41.016,36.133,29.785,28.809,0
1528295670.894,23.438,41.504,35.156,16.113,8.301,0
1528295670.898,32.715,36.133,33.203,32.227,49.805,0
1528295670.902,40.527,31.250,34.180,44.922,41.016,0
1528295670.920,26.367,37.598,33.691,38.574,-4.883,0
1528295670.924,16.113,43.457,33.203,25.391,-20.508,0
1528295670.928,28.320,43.457,34.180,25.391,-28.809,0
1528295670.932,57.129,41.504,34.180,41.016,2.441,0
1528295670.936,56.152,41.504,31.738,43.945,19.531,0
1528295670.940,29.297,43.457,34.180,38.086,-7.324,0
1528295670.944,21.484,41.016,34.668,24.902,9.766,0
1528295670.947,33.691,35.645,24.414,25.391,11.230,0
1528295670.951,49.805,35.645,22.461,34.668,21.484,0
1528295670.955,30.273,38.574,33.203,26.855,51.758,0
1528295670.959,14.160,39.062,36.133,21.973,61.035,0
1528295670.963,37.598,39.062,33.691,30.273,37.109,0
1528295670.960,60.059,37.598,28.809,39.551,22.461,0
1528295670.964,41.504,37.109,24.902,35.156,38.574,0
1528295670.968,20.020,37.109,26.367,26.855,59.082,0
1528295670.972,38.574,35.156,28.809,35.156,57.617,0
1528295670.976,56.641,39.551,28.809,41.504,19.531,0
1528295670.980,56.641,44.922,31.250,29.297,23.438,0
1528295670.984,27.832,42.969,31.738,23.438,18.066,0
1528295670.987,10.742,41.504,27.832,29.297,47.363,0
1528295670.991,41.992,41.992,24.902,38.086,58.594,0
1528295670.995,42.969,39.062,27.344,33.203,24.414,0
1528295670.999,23.438,41.992,31.250,19.043,43.945,0
1528295671.003,27.832,40.527,27.832,16.602,26.367,0
1528295671.000,48.828,36.133,26.855,30.273,27.344,0
1528295671.004,57.129,40.039,29.785,36.133,47.363,0
1528295671.008,27.344,41.992,32.715,27.832,23.438,0
1528295671.012,15.137,42.480,35.645,33.203,24.414,0
1528295671.016,37.109,42.480,35.645,45.410,2.930,0
1528295671.020,45.410,38.574,36.133,39.551,5.371,0
1528295671.024,36.621,37.109,36.621,22.949,87.402,0
1528295671.027,23.926,35.156,35.156,23.438,67.383,0
1528295671.031,26.367,30.273,35.156,28.809,21.973,0
1528295671.035,52.734,33.203,29.297,42.969,27.344,0
1528295671.039,40.527,35.645,28.320,49.805,44.434,0
1528295671.043,18.555,33.203,32.227,32.715,51.758,0
1528295671.060,30.273,35.156,32.227,20.996,27.832,0
1528295671.064,49.316,32.715,31.738,30.762,35.156,0
1528295671.068,42.969,30.273,32.715,40.527,45.410,0
1528295671.072,20.020,34.668,35.156,24.902,-1.953,0
1528295671.076,20.508,35.156,34.668,17.090,12.695,0
1528295671.080,42.480,33.203,33.691,42.480,58.105,0
1528295671.084,43.457,33.691,32.715,37.598,42.969,0
1528295671.087,32.227,36.621,30.273,11.230,45.898,0
1528295671.091,16.113,35.156,28.809,13.184,76.660,0
1528295671.095,21.484,32.227,28.320,28.320,14.160,0
1528295671.099,44.922,32.227,27.344,33.691,-24.414,0
1528295671.103,24.902,31.250,26.855,26.367,-34.180,0
1528295671.100,10.254,30.273,29.297,22.461,-24.414,0
1528295671.104,29.785,28.320,28.320,24.902,11.230,0
1528295671.108,40.039,24.902,28.320,34.180,9.766,0
1528295671.112,32.227,22.949,28.320,32.715,-7.812,0
1528295671.116,7.812,25.391,28.320,24.902,26.855,0
1528295671.120,5.371,27.344,28.809,29.785,20.020,0
1528295671.124,39.062,29.785,26.855,39.062,14.160,0
1528295671.127,42.480,32.227,23.926,37.109,54.199,0
1528295671.131,11.230,32.227,28.320,24.414,50.293,0
1528295671.135,2.930,29.785,34.180,23.438,27.344,0
1528295671.139,38.574,29.785,30.273,39.551,1.953,0
1528295671.143,64.941,33.203,25.879,47.363,31.250,0
1528295671.141,33.691,32.715,29.297,42.969,42.969,0
1528295671.145,15.137,32.715,36.133,27.832,20.996,0
1528295671.149,38.574,35.156,39.551,33.203,0.000,0
1528295671.153,47.852,33.691,38.086,46.875,14.648,0
1528295671.157,31.738,35.645,37.109,36.133,54.688,0
1528295671.161,8.789,36.621,36.133,25.391,37.598,0
1528295671.165,7.812,37.109,34.180,32.715,-19.043,0
1528295671.168,36.133,39.062,34.668,44.434,47.363,0
1528295671.172,40.039,37.598,32.715,37.598,90.820,0
1528295671.176,21.484,35.645,29.297,29.297,37.598,0
1528295671.180,19.531,35.645,31.738,29.785,60.547,0
1528295671.184,45.898,33.691,27.344,37.109,43.945,0
1528295671.200,52.246,35.645,26.367,45.410,61.523,0
1528295671.204,28.320,39.062,30.273,34.668,106.445,0
1528295671.208,15.137,39.062,29.297,24.902,114.258,0
1528295671.212,35.156,39.062,29.785,29.785,100.098,0
1528295671.216,51.270,39.062,29.785,40.039,56.641,0
1528295671.220,22.461,39.551,32.227,33.691,54.688,0
1528295671.224,11.719,38.574,33.691,24.414,56.641,0
1528295671.227,36.621,33.691,32.715,33.691,34.668,0
1528295671.231,54.199,32.715,33.203,49.316,34.668,0
1528295671.235,54.688,37.598,34.668,50.293,45.410,0
1528295671.239,25.391,38.574,35.156,28.809,52.246,0
1528295671.243,18.066,33.691,33.691,29.297,44.922,0
1528295671.239,49.805,31.738,32.227,42.480,29.297,0
1528295671.243,48.340,32.715,35.156,35.645,37.598,0
1528295671.247,23.438,35.156,35.645,25.879,-6.836,0
1528295671.251,18.066,37.109,26.367,28.320,-24.414,0
1528295671.255,31.250,33.203,23.438,39.551,35.156,0
1528295671.259,35.156,28.809,33.203,48.340,65.430,0
1528295671.263,24.414,32.715,36.133,35.156,26.855,0
1528295671.266,20.508,38.574,33.691,19.531,10.254,0
1528295671.270,38.574,39.551,33.203,29.785,61.035,0
1528295671.274,50.293,40.039,33.691,39.551,45.898,0
1528295671.278,30.762,42.969,32.715,32.715,58.105,0
1528295671.282,5.859,45.898,33.203,28.320,34.668,0
1528295671.280,5.371,43.457,32.715,36.133,17.578,0
1528295671.284,38.574,41.016,33.203,36.133,61.035,0
1528295671.288,37.109,37.109,35.645,25.391,27.344,0
1528295671.292,12.695,33.691,32.227,16.602,17.578,0
1528295671.296,17.578,35.645,28.320,16.602,23.438,0
1528295671.300,38.086,35.156,28.320,31.250,34.180,0
1528295671.304,43.945,30.762,30.273,36.133,20.996,0
1528295671.307,23.926,30.273,31.738,18.066,7.324,0
1528295671.311,21.973,34.180,32.715,14.160,-30.762,0
1528295671.315,35.156,35.645,33.203,31.738,42.480,0
1528295671.319,37.109,36.133,34.668,42.480,123.535,0
1528295671.323,19.531,35.645,37.109,35.156,9.277,0
1528295671.340,3.906,35.156,36.621,18.066,5.859,0
1528295671.344,31.738,37.598,31.250,15.137,52.246,0
1528295671.348,52.246,38.086,28.809,27.832,32.715,0
1528295671.352,17.090,39.062,31.738,22.949,-8.301,0
1528295671.356,-1.465,37.598,28.809,15.625,-13.672,0
1528295671.360,12.695,34.180,24.414,26.367,16.602,0
1528295671.364,37.109,33.203,26.367,35.645,43.945,0
1528295671.367,48.340,31.250,32.227,34.180,60.547,0
1528295671.371,25.391,32.715,34.180,24.902,58.105,0
1528295671.375,2.930,33.691,32.227,20.508,47.363,0
1528295671.379,26.855,32.227,29.297,36.133,32.227,0
1528295671.383,47.852,33.691,30.762,36.621,44.434,0
1528295671.380,17.578,35.156,34.180,18.066,23.438,0
1528295671.384,-2.930,35.645,31.738,11.719,10.254,0
1528295671.388,25.879,35.156,30.762,24.902,28.809,0
1528295671.392,46.875,35.156,32.715,33.691,16.602,0
1528295671.396,35.156,34.668,30.273,31.738,79.590,0
1528295671.400,19.043,29.785,29.785,19.531,67.871,0
1528295671.404,27.344,29.297,32.227,20.996,48.828,0
1528295671.407,51.270,32.227,30.762,38.574,73.242,0
1528295671.411,40.039,33.203,34.668,33.203,44.922,0
1528295671.415,10.254,36.621,37.598,27.832,60.059,0
1528295671.419,15.137,33.691,35.645,28.809,93.750,0
1528295671.423,45.898,31.250,32.715,34.180,69.336,0
1528295671.418,50.293,36.133,31.250,30.762,0.488,0
1528295671.422,23.438,39.062,34.668,22.461,-32.227,0
1528295671.426,16.113,36.621,37.598,27.832,4.883,0
1528295671.430,39.062,33.203,36.133,42.969,42.480,0
1528295671.434,49.316,32.227,35.156,49.805,11.230,0
1528295671.438,21.973,30.762,37.598,41.016,22.461,0
1528295671.442,14.648,30.273,37.598,33.691,14.160,0
1528295671.445,28.809,29.785,36.621,38.086,-41.016,0
1528295671.449,39.062,30.273,30.762,37.109,19.043,0
1528295671.453,36.133,32.715,27.832,23.926,35.645,0
1528295671.457,15.625,32.715,34.668,20.508,2.930,0
1528295671.461,22.461,32.715,34.180,28.320,0.488,0
1528295671.480,50.781,32.715,33.691,41.992,24.414,0
1528295671.484,36.133,31.250,35.645,37.109,5.371,0
1528295671.488,11.230,33.691,32.715,18.066,22.461,0
1528295671.492,26.855,36.621,31.250,22.949,65.430,0
1528295671.496,50.293,37.598,32.227,40.039,36.621,0
1528295671.500,41.016,39.062,32.715,39.062,31.250,0
1528295671.504,16.602,39.551,33.691,25.879,24.414,0
1528295671.507,15.625,38.574,30.762,18.555,38.574,0
1528295671.511,34.668,40.039,30.762,28.320,66.895,0
1528295671.515,41.992,39.551,31.738,36.133,50.781,0
1528295671.519,16.602,37.109,32.227,21.973,20.020,0
1528295671.523,-0.977,34.180,32.227,16.113,2.930,0
1528295671.520,25.879,36.133,32.227,35.645,-20.508,0
1528295671.524,45.898,36.621,28.809,37.598,-16.602,0
1528295671.528,36.133,35.645,28.809,25.879,5.859,0
1528295671.532,16.602,36.133,34.180,20.020,-5.859,0
