timestamps,TP9,AF7,AF8,TP10,Right AUX,Marker0
1587513959.435,32.227,29.297,24.414,34.180,-922.852,0
1587513959.439,8.301,29.297,16.602,-2.441,676.270,0
1587513959.443,-0.977,27.832,17.578,-22.949,-736.816,0
1587513959.447,23.926,29.785,21.484,12.695,-641.602,0
1587513959.451,41.992,30.273,24.902,42.480,785.645,0
1587513959.455,29.297,31.738,22.461,23.926,943.359,0
1587513959.459,10.254,34.180,20.508,-5.859,-368.652,0
1587513959.462,23.438,32.227,21.484,9.277,-943.359,0
1587513959.466,49.316,31.738,22.461,50.293,364.258,0
1587513959.470,39.062,32.715,22.461,41.992,-893.555,0
1587513959.474,18.555,30.273,18.555,8.301,4.883,0
1587513959.478,19.531,28.320,23.438,3.418,-1000.000,0
1587513959.500,46.387,26.367,32.227,46.387,-46.387,0
1587513959.504,46.387,26.855,29.297,55.176,-834.473,0
1587513959.508,22.461,25.879,22.461,17.578,405.273,0
1587513959.512,12.207,26.855,22.949,-0.977,-968.750,0
1587513959.516,31.250,22.949,20.020,36.133,-433.594,0
1587513959.520,39.551,20.996,20.020,54.688,998.047,0
1587513959.524,20.020,24.414,23.926,23.438,740.723,0
1587513959.527,7.324,28.320,25.879,0.000,-657.227,0
1587513959.531,29.785,25.391,27.832,30.762,-719.238,0
1587513959.535,53.711,26.855,32.227,64.453,683.594,0
1587513959.539,37.598,27.344,33.203,45.410,998.047,0
1587513959.543,16.602,21.973,31.738,11.719,-269.531,0
1587513959.555,28.320,24.414,27.832,20.508,-1000.000,0
1587513959.559,52.246,23.438,33.203,62.988,241.211,0
1587513959.563,42.480,21.973,36.133,57.617,-857.910,0
1587513959.567,26.367,27.344,31.738,20.508,101.562,0
1587513959.571,27.832,30.762,34.668,15.137,-1000.000,0
1587513959.575,48.828,26.855,39.062,52.734,-197.754,0
1587513959.579,46.387,26.367,37.598,57.129,-877.441,0
1587513959.582,19.531,22.461,34.668,22.949,506.836,0
1587513959.586,8.789,21.973,31.250,-0.488,-900.391,0
1587513959.590,30.273,26.855,25.391,27.344,-522.949,0
1587513959.594,40.527,26.855,26.367,51.758,915.527,0
1587513959.598,20.508,24.902,30.273,28.320,851.074,0
1587513959.599,10.742,23.926,31.738,2.441,-519.531,0
1587513959.603,29.785,25.391,30.762,24.414,-800.293,0
1587513959.607,46.875,30.273,30.762,55.664,565.918,0
1587513959.611,40.039,29.785,28.320,29.785,-940.430,0
1587513959.615,28.809,28.809,24.414,-10.742,-132.812,0
1587513959.619,44.434,33.203,27.832,-4.883,-1000.000,0
1587513959.623,73.242,35.645,23.926,31.738,127.930,0
1587513959.626,68.848,32.715,16.113,29.785,-846.680,0
1587513959.630,48.828,30.273,20.020,-1.465,203.613,0
1587513959.634,38.574,32.715,22.949,-12.207,-1000.000,0
1587513959.638,50.781,29.785,25.879,31.250,-271.973,0
1587513959.642,43.945,24.414,26.855,49.316,-895.508,0
1587513959.657,9.766,22.461,22.949,18.555,614.258,0
1587513959.661,-4.395,23.438,26.367,1.465,-794.922,0
1587513959.665,14.160,24.414,28.809,28.809,-592.285,0
1587513959.669,22.949,23.438,22.461,46.387,835.449,0
1587513959.673,15.625,23.438,26.855,28.809,916.992,0
1587513959.677,9.277,28.809,31.250,6.348,-410.645,0
1587513959.681,24.414,34.180,31.250,23.926,-916.992,0
1587513959.684,44.922,28.320,37.598,62.012,418.945,0
1587513959.688,31.250,21.973,35.645,47.363,-916.016,0
1587513959.692,13.672,27.344,33.691,10.742,-60.059,0
1587513959.696,17.578,33.203,32.715,10.254,-1000.000,0
1587513959.700,34.180,32.227,28.809,42.969,-20.508,0
1587513959.682,31.738,26.855,28.320,43.457,-843.750,0
1587513959.686,14.160,28.809,29.785,15.625,372.070,0
1587513959.690,10.742,33.691,32.715,2.441,-990.234,0
1587513959.694,33.691,32.227,34.180,36.621,-400.879,0
1587513959.698,36.621,29.297,29.297,51.270,-975.098,0
1587513959.702,14.160,25.879,27.344,21.484,689.941,0
1587513959.706,1.953,27.832,29.297,-2.930,-708.984,0
1587513959.709,21.973,29.297,29.297,20.508,-698.730,0
1587513959.713,42.480,32.715,28.809,51.270,710.938,0
1587513959.717,24.902,32.715,25.879,32.715,944.824,0
1587513959.721,1.953,27.344,23.926,0.000,-362.305,0
1587513959.725,18.555,29.297,27.344,17.090,-969.727,0
1587513959.731,41.504,30.273,28.320,52.734,321.777,0
1587513959.735,30.273,28.809,23.438,41.016,-880.371,0
1587513959.739,9.277,28.809,20.996,6.348,61.035,0
1587513959.743,12.695,26.367,23.438,3.906,-1000.000,0
1587513959.747,36.133,29.785,21.973,41.016,-122.559,0
1587513959.751,35.645,32.227,20.508,43.945,-848.145,0
1587513959.755,19.043,28.809,21.973,13.184,466.797,0
1587513959.758,10.742,26.367,19.531,-2.930,-930.664,0
1587513959.762,32.715,23.926,21.973,30.273,-472.656,0
1587513959.766,43.457,28.320,25.391,51.270,968.750,0
1587513959.770,26.367,32.227,28.320,23.926,813.965,0
1587513959.774,13.184,30.762,26.855,-0.488,-572.754,0
1587513959.776,41.504,33.691,25.879,33.691,-782.227,0
1587513959.780,62.500,34.668,25.391,68.359,604.980,0
1587513959.784,29.297,32.715,28.320,33.691,-957.520,0
1587513959.788,2.930,31.738,30.273,-4.395,-183.594,0
1587513959.792,14.648,25.391,29.785,10.254,-1000.000,0
1587513959.796,38.574,21.484,34.668,48.828,164.062,0
1587513959.800,32.227,21.973,36.133,42.480,-858.887,0
1587513959.803,12.695,22.461,37.109,11.719,180.176,0
1587513959.807,16.113,23.926,38.574,10.254,-1000.000,0
1587513959.811,42.969,19.531,37.598,48.828,-260.742,0
1587513959.815,48.828,18.066,34.668,57.617,-904.297,0
1587513959.819,27.344,24.414,34.180,24.902,564.453,0
1587513959.817,10.742,24.414,31.738,-0.488,-849.609,0
1587513959.821,29.785,19.531,29.297,25.879,-566.406,0
1587513959.825,44.922,18.555,30.273,53.711,879.395,0
1587513959.829,31.250,19.531,30.762,33.203,867.188,0
1587513959.833,19.043,23.926,35.156,-0.488,-495.117,0
1587513959.837,35.645,28.809,38.574,23.438,-855.957,0
1587513959.841,51.758,24.414,33.691,58.594,498.535,0
1587513959.844,34.668,20.020,27.344,33.203,-918.457,0
1587513959.848,18.555,24.414,29.297,-0.488,-85.938,0
1587513959.852,22.461,24.902,36.621,3.418,-1000.000,0
1587513959.856,42.969,23.438,37.598,42.969,47.852,0
1587513959.860,42.969,27.344,36.133,42.480,-834.473,0
1587513959.856,27.832,30.273,37.598,14.648,314.453,0
1587513959.860,21.973,25.879,36.133,1.953,-1000.000,0
1587513959.864,41.504,30.273,34.668,31.250,-331.055,0
1587513959.868,51.758,37.109,32.227,50.293,-918.945,0
1587513959.872,33.203,32.227,30.762,22.949,646.484,0
1587513959.876,20.508,28.809,29.297,-0.977,-757.812,0
1587513959.880,39.062,28.809,26.855,27.832,-641.602,0
1587513959.883,52.734,29.785,25.879,54.199,777.344,0
1587513959.887,37.109,33.203,26.367,29.297,933.594,0
1587513959.891,20.020,34.668,30.273,-1.465,-379.395,0
1587513959.895,25.879,27.832,27.344,12.207,-933.594,0
1587513959.899,45.410,28.320,25.391,47.363,375.488,0
1587513959.915,41.992,32.227,32.715,40.527,-871.582,0
1587513959.919,18.066,31.738,31.250,6.348,38.574,0
1587513959.923,12.695,28.809,24.414,-1.953,-1000.000,0
1587513959.927,31.250,22.461,22.461,35.645,-76.660,0
1587513959.931,33.203,26.367,24.902,46.875,-851.074,0
1587513959.935,13.184,30.273,26.367,20.996,392.578,0
1587513959.939,5.371,29.297,26.367,6.836,-974.121,0
1587513959.942,27.344,26.855,26.367,41.504,-443.848,0
1587513959.946,33.691,25.391,27.344,59.082,993.652,0
1587513959.950,16.602,29.297,29.297,30.762,759.277,0
1587513959.954,0.488,28.320,25.879,3.418,-643.066,0
1587513959.958,17.090,25.391,24.902,27.344,-730.957,0
1587513959.968,37.109,25.879,26.367,61.035,670.898,0
1587513959.972,26.367,26.855,25.391,44.922,992.676,0
1587513959.976,6.348,30.273,22.461,5.859,-270.508,0
1587513959.980,12.695,27.344,16.113,12.695,-1000.000,0
1587513959.984,36.621,28.320,19.043,57.129,228.027,0
1587513959.988,27.832,28.320,21.484,48.828,-859.863,0
1587513959.992,5.859,22.949,22.949,9.766,142.578,0
1587513959.995,-0.488,22.461,23.438,-0.488,-1000.000,0
1587513959.999,23.926,26.855,20.996,40.527,-212.402,0
1587513960.003,28.320,27.832,23.438,58.594,-892.578,0
1587513960.007,9.277,29.297,28.809,29.785,494.141,0
1587513960.011,10.254,31.250,30.273,12.207,-892.578,0
1587513959.997,37.109,32.715,33.203,52.246,-527.832,0
1587513960.001,48.340,33.203,30.762,76.172,913.574,0
1587513960.005,30.762,32.227,23.926,44.922,813.965,0
1587513960.009,18.555,30.273,25.391,13.672,-551.270,0
1587513960.013,38.574,24.414,30.273,37.598,-824.219,0
1587513960.017,59.570,21.484,32.227,73.730,537.598,0
1587513960.021,44.434,21.484,31.738,55.176,-946.777,0
1587513960.024,22.461,23.438,29.785,20.020,-155.762,0
1587513960.028,31.738,27.832,30.273,23.926,-1000.000,0
1587513960.032,54.199,27.344,31.250,63.477,112.793,0
1587513960.036,46.875,24.414,31.250,62.988,-854.492,0
1587513960.040,27.832,28.320,33.691,28.809,237.305,0
1587513960.057,14.648,28.809,31.738,9.766,-1000.000,0
1587513960.061,31.738,29.297,32.227,41.992,-317.383,0
1587513960.065,34.668,26.855,32.227,49.316,-924.805,0
1587513960.069,13.672,22.461,33.203,14.648,635.254,0
1587513960.073,0.488,21.973,31.738,-5.371,-779.785,0
1587513960.077,21.484,23.926,32.227,23.926,-618.652,0
1587513960.081,36.133,28.320,33.691,46.387,805.176,0
1587513960.084,19.531,34.668,36.621,26.367,916.016,0
1587513960.088,6.836,35.645,38.574,0.488,-412.598,0
1587513960.092,19.043,28.809,34.180,15.137,-923.340,0
1587513960.096,39.062,23.438,30.762,48.340,395.020,0
1587513960.100,30.273,28.320,30.762,34.668,-902.832,0
1587513960.096,14.160,34.180,23.926,-0.488,-31.250,0
1587513960.100,26.367,36.621,19.043,8.301,-1000.000,0
1587513960.104,49.805,31.250,25.391,50.781,-35.156,0
1587513960.108,38.574,31.250,30.273,43.945,-848.145,0
1587513960.112,11.230,35.156,33.203,8.301,366.211,0
1587513960.116,5.371,32.227,38.086,-4.883,-994.629,0
1587513960.120,31.250,22.949,37.109,33.691,-406.250,0
1587513960.123,38.574,14.160,35.156,53.223,-969.238,0
1587513960.127,19.531,17.578,35.156,23.438,710.938,0
1587513960.131,8.301,20.020,37.598,1.953,-708.496,0
1587513960.135,24.414,17.090,42.969,33.203,-690.430,0
1587513960.139,42.480,16.113,44.434,62.012,719.727,0
1587513960.156,33.203,19.531,43.457,41.016,989.746,0
1587513960.160,20.020,26.855,43.457,15.137,-291.992,0
1587513960.164,31.250,27.344,40.039,28.320,-979.004,0
1587513960.168,52.734,18.555,39.551,62.500,309.570,0
1587513960.172,41.992,16.113,41.016,57.129,-879.395,0
1587513960.176,17.090,16.113,39.551,20.020,63.965,0
1587513960.180,15.625,15.137,35.645,7.812,-1000.000,0
1587513960.183,36.133,18.066,32.227,44.922,-173.828,0
1587513960.187,38.086,20.020,35.645,54.688,-870.605,0
1587513960.191,16.602,24.902,36.133,23.926,482.910,0
1587513960.195,3.418,27.344,35.156,3.906,-918.457,0
1587513960.199,30.762,25.879,38.086,41.504,-499.512,0
1587513960.196,48.828,24.414,37.109,63.477,931.641,0
1587513960.200,26.367,24.414,35.645,33.691,819.824,0
1587513960.204,13.184,25.391,37.598,13.184,-560.547,0
1587513960.208,30.762,18.066,35.156,37.109,-782.227,0
1587513960.212,47.852,17.090,29.785,65.430,600.586,0
1587513960.216,38.574,23.926,28.809,50.293,-970.215,0
1587513960.220,20.996,29.297,30.273,13.672,-192.871,0
1587513960.223,26.367,33.691,29.297,10.742,-1000.000,0
1587513960.227,47.363,33.691,31.250,49.805,170.410,0
1587513960.231,42.480,29.785,30.762,46.875,-848.633,0
1587513960.235,20.020,27.832,25.879,8.301,175.781,0
1587513960.239,9.766,29.297,30.273,-2.441,-1000.000,0
1587513960.236,31.738,30.762,34.668,37.598,-264.648,0
1587513960.240,42.969,28.320,33.691,56.152,-904.297,0
1587513960.244,26.367,26.855,34.668,30.762,588.867,0
1587513960.248,16.602,29.785,31.738,7.812,-822.754,0
1587513960.252,33.203,30.273,31.250,37.109,-572.754,0
1587513960.256,39.551,27.832,31.738,59.570,867.188,0
1587513960.260,20.996,29.297,33.203,37.109,883.301,0
1587513960.263,9.277,29.297,35.645,9.277,-471.680,0
1587513960.267,25.391,27.344,36.621,26.367,-860.352,0
1587513960.271,42.480,29.297,39.062,60.059,495.605,0
1587513960.275,33.203,32.227,38.574,45.898,-924.316,0
1587513960.279,13.184,31.250,34.180,10.742,-82.031,0
1587513960.278,16.602,32.227,32.715,11.719,-1000.000,0
1587513960.282,44.922,28.809,33.203,48.828,22.461,0
1587513960.286,40.527,22.949,30.762,47.363,-856.445,0
1587513960.290,18.066,26.367,29.785,14.648,291.016,0
1587513960.294,11.230,27.832,27.832,0.488,-1000.000,0
1587513960.298,32.715,27.344,31.738,38.574,-363.770,0
1587513960.302,42.480,30.762,31.738,57.129,-960.449,0
1587513960.305,19.043,29.297,27.832,22.461,659.668,0
1587513960.309,4.395,27.344,33.203,-4.395,-744.141,0
1587513960.313,26.855,26.855,36.133,24.902,-646.973,0
1587513960.317,40.527,24.902,37.109,55.664,777.832,0
1587513960.321,26.367,26.855,31.738,31.738,945.312,0
1587513960.335,11.230,28.320,30.273,2.441,-368.164,0
1587513960.339,31.250,29.297,38.086,24.902,-934.082,0
1587513960.343,54.688,27.832,33.203,57.129,377.930,0
1587513960.347,45.410,33.203,29.785,44.922,-890.137,0
1587513960.351,27.344,38.086,32.227,10.742,20.996,0
1587513960.355,27.832,38.086,33.203,5.371,-1000.000,0
1587513960.359,53.223,40.527,36.133,44.922,-92.285,0
1587513960.362,53.223,37.109,38.086,49.805,-851.074,0
1587513960.366,29.297,31.738,34.668,17.578,427.734,0
1587513960.370,19.043,33.203,29.297,1.465,-947.266,0
1587513960.374,34.180,35.156,24.414,28.809,-466.797,0
1587513960.378,43.945,32.715,25.879,48.340,970.703,0
1587513960.376,21.973,31.250,28.320,22.461,762.207,0
1587513960.380,3.906,33.203,28.809,-9.277,-631.348,0
1587513960.384,27.832,30.762,32.715,16.113,-739.746,0
1587513960.388,45.410,31.738,33.691,48.340,645.996,0
1587513960.392,30.273,32.715,29.297,31.738,-989.258,0
1587513960.396,10.742,28.320,24.902,0.000,-240.723,0
1587513960.400,18.555,27.832,27.832,11.719,-1000.000,0
1587513960.403,45.898,29.297,29.785,55.176,228.027,0
1587513960.407,41.992,29.785,27.832,51.758,-887.207,0
1587513960.411,21.484,30.762,27.344,22.461,111.328,0
1587513960.415,17.578,25.879,27.832,16.113,-1000.000,0
1587513960.419,46.875,24.414,31.738,57.617,-213.379,0
1587513960.445,54.688,26.367,29.785,71.289,-881.836,0
1587513960.449,30.762,31.250,23.926,38.574,517.578,0
1587513960.453,23.926,36.133,27.832,22.949,-864.258,0
1587513960.457,44.434,30.273,27.832,51.270,-547.852,0
1587513960.461,54.199,29.785,23.438,68.359,875.488,0
1587513960.465,39.551,36.133,25.879,44.434,810.059,0
1587513960.469,20.508,38.574,30.273,13.184,-538.086,0
1587513960.472,29.297,33.691,32.715,25.879,-827.637,0
1587513960.476,45.410,26.855,31.738,58.594,520.020,0
1587513960.480,32.715,25.391,31.250,41.992,-946.777,0
1587513960.484,10.742,26.855,31.738,8.301,-126.953,0
1587513960.488,11.230,26.367,29.297,8.301,-1000.000,0
1587513960.478,32.715,27.832,29.297,41.504,87.891,0
1587513960.482,28.809,27.344,32.715,41.016,-860.840,0
1587513960.486,5.371,24.902,32.227,9.277,257.812,0
1587513960.490,4.395,25.391,34.180,0.000,-1000.000,0
1587513960.494,25.879,25.879,33.691,36.133,-333.984,0
1587513960.498,29.297,27.832,32.227,49.805,-954.102,0
1587513960.502,16.113,32.227,31.738,24.414,601.074,0
1587513960.505,5.371,32.715,28.320,3.418,-778.809,0
1587513960.509,23.926,27.344,29.785,30.762,-619.141,0
1587513960.513,43.457,26.855,29.297,58.594,792.969,0
1587513960.517,27.832,30.273,29.297,34.668,901.367,0
1587513960.521,15.137,33.203,33.691,7.812,-415.527,0
1587513960.517,32.227,33.691,33.691,23.926,-910.645,0
1587513960.521,47.363,27.344,31.250,53.223,416.016,0
1587513960.525,32.227,23.438,26.855,39.062,-921.875,0
1587513960.529,13.672,29.785,30.273,2.441,-39.551,0
1587513960.533,19.531,36.621,32.715,2.930,-1000.000,0
1587513960.537,40.527,33.203,29.785,40.527,-47.363,0
1587513960.541,34.180,29.785,32.227,39.062,-851.074,0
1587513960.544,5.859,24.414,37.109,2.441,383.301,0
1587513960.548,0.000,27.344,36.621,-14.648,-980.469,0
1587513960.552,27.344,30.273,38.574,22.949,-410.645,0
1587513960.556,34.180,24.902,39.551,40.527,-994.629,0
1587513960.560,12.207,25.879,33.203,13.184,741.211,0
1587513960.577,1.465,23.926,31.250,-5.371,-650.391,0
1587513960.581,25.879,22.461,30.762,20.020,-699.219,0
1587513960.585,46.387,25.391,31.250,49.316,701.172,0
1587513960.589,39.062,29.785,38.574,35.156,978.516,0
1587513960.593,22.461,32.715,41.016,6.348,-296.387,0
1587513960.597,32.227,29.785,37.598,15.625,-967.285,0
1587513960.601,52.734,27.832,29.785,50.781,298.828,0
1587513960.604,47.852,30.273,34.668,45.410,-890.137,0
1587513960.608,30.273,31.250,38.574,12.695,95.703,0
1587513960.612,26.855,32.227,32.227,3.906,-1000.000,0
1587513960.616,47.852,31.738,31.250,41.016,-152.832,0
1587513960.620,49.316,31.250,30.762,49.805,-870.117,0
1587513960.616,28.809,28.809,32.227,15.625,484.375,0
1587513960.620,15.625,28.320,33.203,-2.441,-897.461,0
1587513960.624,30.273,26.855,32.715,27.832,-492.188,0
1587513960.628,43.945,26.367,35.156,45.898,947.266,0
1587513960.632,28.320,29.785,38.574,19.531,812.500,0
1587513960.636,8.789,29.785,38.086,-8.301,-567.383,0
1587513960.640,20.996,28.320,36.621,12.207,-787.598,0
1587513960.643,38.574,28.320,39.551,43.945,587.891,0
1587513960.647,26.855,28.809,40.527,32.715,-957.031,0
1587513960.651,8.301,30.762,38.086,-2.441,-174.316,0
1587513960.655,14.160,27.344,35.645,-1.465,-1000.000,0
1587513960.659,37.109,22.461,35.156,38.574,139.648,0
1587513960.656,31.738,25.879,34.180,38.086,-839.355,0
1587513960.660,6.348,25.391,33.691,6.348,225.098,0
1587513960.664,2.441,28.320,30.273,-3.418,-1000.000,0
1587513960.668,28.320,30.762,32.227,35.156,-258.301,0
1587513960.672,31.738,23.926,36.133,48.828,-894.531,0
1587513960.676,10.254,24.902,33.691,19.043,584.961,0
1587513960.680,-1.465,27.832,28.809,-5.371,-810.547,0
1587513960.683,20.508,26.855,28.320,20.996,-593.750,0
1587513960.687,36.133,24.414,30.273,44.434,834.473,0
1587513960.691,20.996,24.414,31.250,23.438,865.234,0
1587513960.695,7.812,29.785,36.621,0.977,-481.934,0
1587513960.699,20.996,25.391,36.133,20.508,-864.258,0
1587513960.716,36.621,23.438,30.762,50.781,479.492,0
1587513960.720,29.297,27.832,33.203,39.551,-927.246,0
1587513960.724,15.137,27.344,34.180,10.254,-84.961,0
1587513960.728,18.066,29.297,29.785,11.230,-1000.000,0
1587513960.732,43.457,25.391,31.250,49.316,35.645,0
1587513960.736,47.852,22.461,34.668,47.852,-831.543,0
1587513960.740,31.738,27.832,33.203,8.789,314.453,0
1587513960.743,31.738,28.320,33.691,-10.254,-1000.000,0
1587513960.747,61.035,29.297,34.668,23.438,-349.121,0
1587513960.751,73.730,27.832,34.180,38.086,-935.547,0
1587513960.755,53.711,29.297,28.320,1.953,658.691,0
1587513960.759,37.598,34.668,21.973,-20.996,-751.465,0
1587513960.756,56.152,32.715,30.273,18.555,-644.531,0
1587513960.760,62.500,29.785,34.180,49.805,775.879,0
1587513960.764,32.715,28.320,31.250,30.273,948.242,0
1587513960.768,5.859,26.367,33.203,4.395,-361.816,0
1587513960.772,10.742,24.902,29.785,20.020,-956.055,0
1587513960.776,29.785,22.461,29.297,56.641,341.797,0
1587513960.780,24.414,21.973,28.809,44.434,-889.160,0
1587513960.783,8.301,25.391,30.762,6.836,34.668,0
1587513960.787,7.324,34.180,32.715,0.977,-1000.000,0
1587513960.791,33.691,34.180,28.320,42.969,-122.559,0
1587513960.795,39.551,25.879,30.762,50.293,-871.582,0
1587513960.799,18.066,26.855,32.715,13.184,410.156,0
1587513960.817,4.395,28.320,29.785,-6.836,-965.820,0
1587513960.821,20.508,27.832,31.250,27.832,-437.012,0
1587513960.825,28.809,30.762,31.738,46.875,-995.117,0
1587513960.829,9.277,31.738,33.203,17.578,753.906,0
1587513960.833,-3.418,28.809,34.668,-9.277,-637.695,0
1587513960.837,17.090,31.250,38.086,16.113,-742.188,0
1587513960.841,31.738,29.785,38.574,43.457,653.809,0
1587513960.844,14.160,24.414,27.344,18.066,993.164,0
1587513960.848,0.488,25.391,25.391,-11.719,-276.855,0
1587513960.852,9.766,27.832,30.273,0.977,-1000.000,0
1587513960.856,27.832,26.855,30.273,41.992,233.398,0
1587513960.860,22.949,24.902,29.297,37.109,-850.586,0
1587513960.857,6.836,26.855,30.273,1.953,155.762,0
1587513960.861,4.395,28.320,30.762,-4.883,-1000.000,0
1587513960.865,30.273,28.809,31.738,35.645,-221.680,0
1587513960.869,34.668,28.809,33.203,44.434,-875.488,0
1587513960.873,11.719,27.344,27.344,12.695,521.973,0
1587513960.877,5.859,29.297,26.367,-2.930,-881.348,0
1587513960.881,31.738,27.344,28.809,32.227,-537.109,0
1587513960.884,38.086,21.484,23.926,53.711,904.785,0
1587513960.888,19.043,27.832,24.414,28.320,845.215,0
1587513960.892,8.789,33.203,28.809,-2.441,-524.902,0
1587513960.896,21.973,28.809,29.297,16.602,-833.984,0
1587513960.900,40.527,27.344,30.273,54.688,523.438,0
1587513960.896,33.203,25.879,27.832,42.969,-929.688,0
1587513960.900,12.695,28.320,23.926,8.301,-112.305,0
1587513960.904,14.160,35.156,26.367,6.348,-1000.000,0
1587513960.908,33.203,31.738,25.879,39.551,107.422,0
1587513960.912,29.785,30.273,23.438,40.039,-826.172,0
1587513960.916,13.184,29.297,26.855,8.789,295.410,0
1587513960.920,11.230,26.855,28.809,-6.348,-1000.000,0
1587513960.923,41.504,31.250,29.297,34.180,-313.477,0
1587513960.927,50.781,30.762,30.273,53.223,-907.715,0
1587513960.931,31.250,32.715,29.785,23.926,623.047,0
1587513960.935,16.113,35.645,24.902,-0.488,-800.293,0
1587513960.939,32.715,32.715,23.926,24.414,-611.816,0
1587513960.935,44.434,29.297,25.879,46.875,822.266,0
1587513960.939,24.902,30.273,22.461,21.973,918.457,0
1587513960.943,8.301,34.180,15.137,-10.742,-414.062,0
1587513960.947,23.926,34.180,16.113,8.301,-919.434,0
1587513960.951,48.340,33.691,26.855,51.270,415.039,0
1587513960.955,38.086,34.180,28.320,39.551,-905.273,0
1587513960.959,19.531,34.180,27.832,6.836,-35.156,0
1587513960.962,28.320,33.691,32.715,11.230,-1000.000,0
1587513960.966,52.246,31.738,38.086,48.828,-51.758,0
1587513960.970,50.781,28.320,33.203,48.340,-834.961,0
1587513960.974,29.297,31.738,22.949,11.719,373.047,0
1587513960.978,16.113,34.668,21.484,-9.766,-995.605,0
1587513960.995,40.527,33.691,23.438,28.320,-406.738,0
1587513960.999,53.223,33.203,30.273,49.805,-982.910,0
1587513961.003,32.227,37.109,31.250,16.602,723.145,0
1587513961.007,15.625,38.574,31.250,-14.160,-685.059,0
1587513961.011,29.785,31.250,32.227,11.230,-692.871,0
1587513961.015,47.363,29.297,27.832,43.945,718.750,0
1587513961.019,40.039,36.133,28.320,27.344,964.355,0
1587513961.022,21.484,36.133,34.180,-3.906,-323.730,0
1587513961.026,28.320,35.156,36.133,6.348,-982.910,0
1587513961.030,47.363,35.156,32.715,41.992,293.945,0
1587513961.034,40.527,32.227,34.180,35.645,-853.027,0
1587513961.038,20.020,33.203,36.621,4.395,110.840,0
1587513961.058,17.578,28.809,40.527,-2.930,-1000.000,0
1587513961.062,38.574,24.414,40.527,30.762,-155.273,0
1587513961.066,34.180,27.832,36.133,38.086,-848.145,0
1587513961.070,13.672,29.297,34.668,7.324,499.512,0
1587513961.074,1.953,34.180,35.156,-15.137,-923.340,0
1587513961.078,14.648,33.691,38.086,12.207,-498.047,0
1587513961.082,19.043,32.715,40.527,29.297,952.148,0
1587513961.085,-6.836,31.738,40.527,-4.395,824.707,0
1587513961.089,-22.949,29.297,40.527,-28.809,-556.152,0
1587513961.093,-2.930,29.297,40.527,0.488,-782.227,0
1587513961.097,13.672,32.227,39.551,33.203,598.633,0
1587513961.101,-1.465,34.668,39.062,14.648,-960.938,0
1587513961.076,-20.020,31.738,36.621,-19.043,-197.266,0
1587513961.080,-14.160,28.809,40.527,-9.766,-1000.000,0
1587513961.084,7.812,33.203,40.527,26.367,177.734,0
1587513961.088,1.953,32.715,39.062,21.484,-835.938,0
1587513961.092,-20.996,31.738,40.527,-15.625,194.336,0
1587513961.096,-23.926,40.039,38.086,-29.297,-1000.000,0
1587513961.100,-0.977,36.621,37.109,9.277,-253.418,0
1587513961.103,4.395,34.180,34.180,23.926,-882.324,0
1587513961.107,-11.719,36.133,32.227,-6.348,582.520,0
1587513961.111,-9.277,40.527,38.086,-17.578,-834.473,0
1587513961.115,16.602,41.504,43.945,21.973,-571.777,0
1587513961.119,22.461,34.180,41.016,40.039,875.000,0
1587513961.136,6.348,34.180,38.574,14.160,878.418,0
1587513961.140,-12.207,37.109,38.574,-19.043,-484.375,0
1587513961.144,-2.930,38.086,37.598,-8.301,-870.117,0
1587513961.148,13.672,33.203,30.762,23.926,482.422,0
1587513961.152,0.000,29.785,25.879,10.742,-908.691,0
1587513961.156,-16.113,37.109,26.367,-21.973,-74.219,0
1587513961.160,-8.789,41.504,29.785,-15.625,-1000.000,0
1587513961.163,20.996,39.551,35.156,36.133,45.410,0
1587513961.167,22.949,36.133,30.762,43.457,-833.008,0
1587513961.171,3.418,33.203,29.785,11.719,304.199,0
1587513961.175,1.465,33.691,28.320,1.465,-1000.000,0
1587513961.179,33.691,41.016,27.832,40.527,-360.352,0
1587513961.215,46.875,43.945,31.738,58.105,-940.430,0
1587513961.219,25.879,43.457,30.762,25.391,673.828,0
1587513961.223,12.207,44.434,28.320,-3.418,-740.234,0
1587513961.227,26.367,40.039,26.367,15.625,-653.320,0
1587513961.231,33.203,35.156,25.879,35.156,765.625,0
1587513961.235,13.184,35.156,19.531,10.742,935.059,0
1587513961.239,0.488,37.109,18.555,-16.113,-371.582,0
1587513961.242,11.719,37.109,22.461,-0.977,-961.914,0
1587513961.246,33.691,32.715,22.949,38.574,334.961,0
1587513961.250,26.855,30.273,20.508,30.762,-874.023,0
1587513961.254,5.859,31.250,22.461,-1.953,49.805,0
1587513961.258,8.301,32.715,25.879,0.000,-1000.000,0
1587513961.232,31.250,24.414,26.855,41.016,-108.398,0
1587513961.236,37.598,21.973,29.785,49.316,-844.727,0
1587513961.240,21.484,30.273,29.297,19.531,390.625,0
1587513961.244,14.160,30.273,28.320,1.465,-986.816,0
1587513961.248,45.410,31.250,34.668,41.992,-448.730,0
1587513961.252,57.617,32.715,32.227,62.988,982.422,0
1587513961.256,33.203,31.250,27.344,26.855,771.973,0
1587513961.259,20.996,37.109,28.809,1.465,-626.465,0
1587513961.263,34.180,34.180,28.809,25.879,-749.512,0
1587513961.267,41.016,23.438,26.367,46.387,649.902,0
1587513961.271,21.973,20.996,24.902,20.508,-994.629,0
1587513961.275,2.441,21.973,27.344,-8.789,-251.465,0
1587513961.275,12.695,20.508,31.250,7.324,-1000.000,0
1587513961.279,36.621,25.391,32.715,49.805,208.008,0
1587513961.283,29.785,33.203,31.738,45.898,-845.703,0
1587513961.287,13.672,30.762,31.250,13.672,161.133,0
1587513961.291,16.602,27.344,29.785,9.277,-1000.000,0
1587513961.295,36.133,21.484,24.902,48.828,-223.145,0
1587513961.299,42.480,22.949,23.926,59.570,-879.395,0
1587513961.302,27.832,33.691,25.879,27.344,515.625,0
1587513961.306,20.020,32.715,30.273,11.719,-894.043,0
1587513961.310,42.969,29.785,30.273,43.945,-532.715,0
1587513961.314,56.641,31.250,27.344,65.918,908.691,0
1587513961.318,35.156,29.297,25.391,38.086,857.910,0
1587513961.317,11.719,26.855,24.902,1.465,-516.602,0
1587513961.321,25.879,29.297,28.809,18.555,-821.289,0
1587513961.325,43.945,30.273,32.227,49.805,558.594,0
1587513961.329,27.832,23.438,28.809,29.785,-936.035,0
1587513961.333,6.836,20.996,20.508,-4.395,-140.625,0
1587513961.337,20.996,28.809,22.949,5.371,-1000.000,0
1587513961.341,41.016,21.973,20.996,42.480,83.496,0
1587513961.344,32.715,19.531,21.484,44.434,-831.055,0
1587513961.348,21.973,27.344,27.344,21.484,269.043,0
1587513961.352,19.531,24.902,25.879,7.324,-1000.000,0
1587513961.356,45.898,25.391,31.250,43.457,-303.711,0
1587513961.360,54.199,29.785,28.320,55.176,-902.344,0
1587513961.359,31.738,32.227,28.320,17.090,663.574,0
1587513961.363,15.137,32.227,28.809,-10.254,-756.836,0
1587513961.367,27.832,31.250,23.926,16.602,-618.652,0
1587513961.371,33.203,27.344,25.391,39.062,816.895,0
1587513961.375,14.648,28.320,27.832,14.160,929.688,0
1587513961.379,3.418,32.227,32.227,-7.812,-400.879,0
1587513961.383,17.090,23.926,36.621,14.160,-919.922,0
1587513961.386,34.668,20.020,33.691,45.898,407.715,0
1587513961.390,27.344,23.926,39.062,38.574,-891.113,0
1587513961.394,6.348,25.391,43.945,2.441,-11.230,0
1587513961.398,0.000,24.414,37.598,-10.254,-1000.000,0
1587513961.402,26.855,25.391,36.621,33.691,-44.922,0
1587513961.416,27.344,29.785,35.645,33.691,-832.031,0
1587513961.420,0.000,34.180,38.574,-6.348,409.180,0
1587513961.424,-7.324,34.180,45.410,-28.320,-979.004,0
1587513961.428,15.625,36.133,49.316,0.977,-406.250,0
1587513961.432,12.695,39.551,47.852,14.160,-964.844,0
1587513961.436,-20.508,33.203,45.410,-25.391,710.938,0
1587513961.440,-44.922,33.203,51.270,-59.570,-699.707,0
1587513961.443,-34.180,37.109,54.199,-39.551,-694.336,0
1587513961.447,-21.484,42.480,55.664,-14.160,714.844,0
1587513961.451,-48.828,48.828,56.152,-45.410,972.168,0
1587513961.455,-78.613,53.223,53.711,-91.797,-313.965,0
1587513961.459,-77.637,55.664,51.270,-92.285,-983.398,0
1587513961.455,-62.012,55.664,47.852,-64.453,294.434,0
1587513961.459,-76.660,55.176,48.828,-75.684,-863.281,0
1587513961.463,-118.164,55.664,49.316,-123.047,88.379,0
1587513961.467,-134.277,56.641,51.758,-147.949,-1000.000,0
1587513961.471,-118.652,62.500,57.129,-117.676,-158.691,0
1587513961.475,-120.117,62.012,63.477,-113.281,-845.703,0
1587513961.479,-142.090,55.176,62.012,-147.949,493.164,0
1587513961.482,-152.344,52.246,57.129,-167.480,-923.340,0
1587513961.486,-127.930,47.363,54.688,-134.766,-500.977,0
1587513961.490,-116.699,44.922,55.176,-110.352,939.941,0
1587513961.494,-134.766,45.410,59.082,-134.766,806.152,0
1587513961.498,-151.855,47.363,57.617,-165.527,-574.219,0
1587513961.497,-134.277,46.875,56.152,-137.695,-780.273,0
1587513961.501,-107.422,40.039,57.617,-97.656,600.586,0
1587513961.505,-112.793,33.691,56.152,-110.840,-956.543,0
1587513961.509,-119.629,41.504,60.547,-126.953,-179.199,0
1587513961.513,-97.656,44.922,58.105,-98.145,-1000.000,0
1587513961.517,-60.059,36.133,53.711,-45.410,148.438,0
1587513961.521,-53.223,32.715,52.246,-40.527,-839.844,0
1587513961.524,-64.941,34.180,45.898,-66.406,216.309,0
1587513961.528,-61.523,38.086,41.992,-71.289,-1000.000,0
1587513961.532,-32.227,36.133,38.574,-31.250,-259.277,0
1587513961.536,-17.578,37.598,33.691,-9.277,-880.371,0
1587513961.540,-27.832,43.457,29.297,-29.297,618.164,0
1587513961.557,-23.926,42.969,32.227,-34.668,-805.664,0
1587513961.561,9.277,38.086,29.297,7.324,-577.637,0
1587513961.565,33.691,33.203,22.461,40.527,858.887,0
1587513961.569,29.785,32.227,25.391,27.832,885.254,0
1587513961.573,20.508,33.203,26.855,4.395,-453.613,0
1587513961.577,36.621,31.250,20.508,27.344,-891.602,0
1587513961.581,58.105,28.809,20.020,63.965,443.848,0
1587513961.584,44.434,28.809,21.484,47.852,-927.246,0
1587513961.588,30.762,31.250,20.996,23.438,-91.309,0
1587513961.592,44.434,28.809,20.508,34.668,-1000.000,0
1587513961.596,68.359,22.461,14.160,71.289,21.484,0
1587513961.600,72.754,20.508,12.695,76.172,-847.168,0
1587513961.595,62.012,26.367,15.137,50.781,322.754,0
1587513961.599,57.129,23.438,12.207,40.039,-1000.000,0
1587513961.603,82.031,18.555,11.719,78.613,-370.117,0
1587513961.607,90.332,20.020,17.578,97.656,-944.824,0
1587513961.611,68.848,15.137,17.090,69.336,677.246,0
1587513961.615,59.082,14.648,15.625,46.387,-732.422,0
1587513961.619,78.125,14.160,17.578,73.730,-672.852,0
1587513961.622,97.168,11.719,20.508,104.980,743.652,0
1587513961.626,84.473,12.207,17.578,86.914,942.871,0
1587513961.630,69.824,14.160,18.066,61.035,-361.816,0
1587513961.634,85.938,20.996,21.484,75.195,-958.496,0
1587513961.638,105.469,19.043,17.578,110.352,331.055,0
1587513961.656,95.703,17.578,12.695,103.027,-883.789,0
1587513961.660,76.172,18.066,16.113,68.359,39.062,0
1587513961.664,70.801,13.672,19.531,60.059,-1000.000,0
1587513961.668,94.238,14.648,20.020,100.098,-106.445,0
1587513961.672,92.285,14.160,17.090,106.445,-844.238,0
1587513961.676,69.336,13.184,14.648,70.801,454.590,0
1587513961.680,68.359,18.555,18.555,57.617,-945.312,0
1587513961.683,92.773,14.648,18.555,92.285,-461.914,0
1587513961.687,101.562,9.277,17.578,112.305,976.074,0
1587513961.691,80.566,11.719,14.648,85.938,786.621,0
1587513961.695,70.312,15.137,14.648,57.129,-608.887,0
1587513961.699,87.891,14.648,18.066,81.543,-742.676,0
1587513961.696,102.051,15.625,21.973,113.281,652.832,0
1587513961.700,85.449,18.066,25.391,86.914,-978.516,0
1587513961.704,61.035,17.578,20.996,50.293,-212.891,0
1587513961.708,64.453,17.578,19.531,54.688,-1000.000,0
1587513961.712,88.867,17.578,21.484,91.797,207.031,0
1587513961.716,84.473,12.695,20.020,87.891,-852.539,0
1587513961.720,63.965,11.230,16.113,55.176,156.738,0
1587513961.723,65.430,16.602,19.531,51.270,-1000.000,0
1587513961.727,89.844,17.090,22.949,86.426,-209.961,0
1587513961.731,90.820,18.066,22.949,99.121,-869.141,0
1587513961.735,62.988,18.066,20.020,63.477,514.160,0
1587513961.739,50.781,16.602,24.902,38.574,-886.230,0
1587513961.735,77.148,18.555,32.227,72.754,-531.738,0
1587513961.739,83.984,20.020,26.855,93.262,899.414,0
1587513961.743,62.500,16.602,24.902,64.453,865.234,0
1587513961.747,52.246,17.578,31.250,38.086,-494.629,0
1587513961.751,64.453,14.160,31.738,60.547,-830.566,0
1587513961.755,78.125,10.742,26.855,88.379,525.391,0
1587513961.759,62.988,14.648,26.367,69.824,-936.035,0
1587513961.762,42.480,20.996,28.809,38.086,-104.980,0
1587513961.766,50.781,22.461,29.297,39.551,-1000.000,0
1587513961.770,71.289,17.090,27.832,77.637,77.148,0
1587513961.774,67.383,19.531,25.879,80.566,-843.262,0
1587513961.778,52.734,24.414,23.926,49.805,270.020,0
1587513961.777,54.688,22.949,32.227,38.086,-1000.000,0
1587513961.781,74.219,21.973,33.203,66.895,-340.820,0
1587513961.785,70.312,18.066,29.297,76.172,-958.008,0
1587513961.789,52.734,23.926,36.621,52.246,646.973,0
1587513961.793,43.457,28.809,36.621,28.809,-746.582,0
1587513961.797,56.152,21.484,33.691,50.781,-631.836,0
1587513961.801,64.941,20.508,32.227,75.684,778.809,0
1587513961.804,46.875,22.461,32.227,53.711,891.113,0
1587513961.808,26.367,19.043,31.738,21.484,-416.504,0
1587513961.812,38.574,17.090,29.297,38.574,-904.785,0
1587513961.816,59.082,18.555,30.273,72.266,407.715,0
1587513961.820,47.363,22.949,26.367,56.641,-924.316,0
1587513961.835,32.715,27.832,29.785,27.344,-12.695,0
1587513961.839,40.039,26.855,33.203,27.344,-1000.000,0
1587513961.843,62.988,20.508,32.227,65.430,-45.410,0
1587513961.847,58.594,14.648,28.809,67.383,-860.840,0
1587513961.851,39.062,19.531,29.785,37.109,361.328,0
1587513961.855,29.297,24.902,27.832,17.090,-970.703,0
1587513961.859,46.875,29.297,23.926,45.410,-415.527,0
1587513961.862,52.246,32.715,22.949,67.871,999.023,0
1587513961.866,29.785,28.809,24.414,41.016,736.328,0
1587513961.870,19.531,24.902,25.391,16.113,-645.508,0
1587513961.874,43.945,25.391,29.297,40.039,-715.820,0
1587513961.878,61.523,25.879,24.414,61.523,679.199,0
1587513961.877,57.129,26.855,14.160,36.621,974.609,0
1587513961.881,55.664,30.762,20.020,7.324,-292.480,0
1587513961.885,75.684,32.715,20.508,15.625,-992.188,0
1587513961.889,98.145,27.344,14.160,46.387,257.324,0
1587513961.893,92.773,27.344,14.648,37.598,-865.723,0
1587513961.897,73.242,29.297,20.020,10.254,122.070,0
1587513961.901,59.082,28.809,18.555,11.230,-1000.000,0
1587513961.904,66.895,26.367,17.578,53.223,-189.941,0
1587513961.908,59.570,22.461,20.508,67.871,-894.043,0
1587513961.912,30.273,27.344,22.949,39.062,466.309,0
1587513961.916,15.137,30.762,30.273,19.531,-905.762,0
1587513961.920,34.668,26.367,29.785,49.805,-510.254,0
1587513961.936,45.410,22.461,28.320,64.941,916.504,0
1587513961.940,27.832,22.461,27.832,36.621,790.527,0
1587513961.944,14.160,19.043,26.855,8.301,-567.871,0
1587513961.948,35.645,18.066,27.832,34.180,-799.805,0
1587513961.952,55.664,23.438,28.809,71.777,567.383,0
1587513961.956,45.410,26.367,29.297,56.641,-972.168,0
1587513961.960,29.297,26.367,31.250,29.297,-186.523,0
1587513961.963,36.621,33.203,29.785,34.668,-1000.000,0
1587513961.967,56.152,31.250,28.809,66.406,130.371,0
1587513961.971,47.852,23.438,31.250,62.500,-852.539,0
1587513961.975,18.555,23.438,27.832,21.973,236.328,0
1587513961.979,8.789,20.996,27.344,2.930,-1000.000,0
1587513961.976,33.203,20.020,33.203,41.992,-290.039,0
1587513961.980,42.969,24.902,35.645,58.594,-921.875,0
1587513961.984,33.691,33.203,38.086,35.645,613.770,0
1587513961.988,25.391,31.250,39.551,18.555,-783.691,0
1587513961.992,39.062,22.949,33.691,42.480,-602.051,0
1587513961.996,49.805,24.414,32.227,63.477,820.312,0
1587513962.000,30.273,23.926,34.180,35.645,891.113,0
1587513962.003,13.184,23.926,32.715,2.441,-447.266,0
1587513962.007,26.367,23.926,26.855,15.137,-890.137,0
1587513962.011,47.363,25.391,27.832,48.340,454.102,0
1587513962.015,36.133,26.367,26.855,33.203,-949.219,0
1587513962.019,22.949,25.391,31.250,6.348,-86.914,0
1587513962.032,33.691,28.320,35.645,16.602,-1000.000,0
1587513962.036,53.223,26.855,31.738,50.293,-8.301,0
1587513962.040,47.852,25.879,29.297,52.246,-847.168,0
1587513962.044,25.391,30.273,32.715,19.531,312.988,0
1587513962.048,17.578,30.273,34.180,1.465,-1000.000,0
1587513962.052,39.551,25.879,33.203,39.062,-393.066,0
1587513962.056,40.527,21.973,28.320,49.316,-975.098,0
1587513962.059,22.949,21.973,26.367,18.066,690.918,0
1587513962.063,15.625,29.297,30.273,-0.488,-721.191,0
1587513962.067,34.180,31.250,33.203,27.344,-676.758,0
1587513962.071,53.711,24.414,35.156,60.547,736.328,0
1587513962.075,40.527,18.555,37.109,41.992,955.566,0
1587513962.076,21.973,24.902,29.297,4.883,-343.750,0
1587513962.080,29.297,30.273,26.367,13.672,-966.797,0
1587513962.084,41.992,26.367,28.809,45.410,323.242,0
1587513962.088,32.715,19.043,29.297,36.621,-880.859,0
1587513962.092,20.020,22.949,28.320,8.789,48.340,0
1587513962.096,20.996,24.902,29.785,3.906,-1000.000,0
1587513962.100,43.457,20.508,35.156,41.504,-134.277,0
1587513962.103,49.316,26.855,33.203,50.293,-863.770,0
1587513962.107,32.715,31.738,31.738,21.973,443.359,0
1587513962.111,26.367,33.691,28.809,7.812,-942.383,0
1587513962.115,41.992,30.762,25.391,35.156,-462.891,0
1587513962.119,47.852,28.809,23.926,47.852,976.074,0
1587513962.116,31.250,30.762,30.273,18.555,763.184,0
1587513962.120,12.207,30.762,32.715,-10.254,-625.000,0
1587513962.124,22.461,28.809,33.203,12.695,-747.070,0
1587513962.128,39.551,26.367,32.227,41.016,645.508,0
1587513962.132,30.762,27.832,31.738,22.461,999.023,0
1587513962.136,14.648,29.785,32.227,-5.859,-254.395,0
1587513962.140,23.926,23.926,27.832,1.953,-1000.000,0
1587513962.143,54.199,23.438,28.320,43.945,203.613,0
1587513962.147,54.688,33.203,32.227,44.922,-851.074,0
1587513962.151,31.738,36.621,33.203,7.812,149.414,0
1587513962.155,26.367,30.273,25.391,-8.789,-1000.000,0
1587513962.159,51.758,27.344,24.414,30.762,-204.590,0
1587513962.155,50.781,27.832,26.367,39.551,-874.023,0
1587513962.159,27.344,32.715,26.367,2.441,536.133,0
1587513962.163,14.648,29.297,22.461,-20.996,-862.793,0
1587513962.167,32.715,23.926,27.832,7.324,-557.129,0
1587513962.171,48.340,27.344,36.133,35.156,879.395,0
1587513962.175,35.645,25.391,30.273,15.137,852.051,0
1587513962.179,20.020,20.996,31.250,-7.812,-497.559,0
1587513962.182,37.109,21.973,29.297,18.066,-847.168,0
1587513962.186,53.223,28.809,23.438,51.758,502.441,0
1587513962.190,37.598,32.227,27.832,37.109,-930.664,0
1587513962.194,18.555,31.738,31.250,6.836,-113.281,0
1587513962.198,23.926,32.227,34.180,14.160,-1000.000,0
1587513962.215,46.875,31.250,37.109,55.176,78.125,0
1587513962.219,37.109,27.344,30.762,53.223,-844.238,0
1587513962.223,9.766,23.926,29.785,15.625,237.305,0
1587513962.227,9.277,25.879,38.574,4.883,-1000.000,0
1587513962.231,29.297,23.926,34.668,41.016,-309.570,0
1587513962.235,31.250,20.020,30.273,52.246,-910.156,0
1587513962.239,13.184,24.902,30.273,21.973,643.066,0
1587513962.242,-9.766,25.391,22.949,-7.812,-774.902,0
1587513962.246,14.160,24.902,24.414,21.484,-624.023,0
1587513962.250,37.109,23.438,25.879,54.199,807.129,0
1587513962.254,20.996,24.902,28.320,32.715,927.734,0
1587513962.258,2.930,30.273,30.762,3.906,-397.949,0
1587513962.257,12.695,29.785,33.691,17.578,-921.387,0
1587513962.261,36.133,24.414,34.668,56.152,408.203,0
1587513962.265,26.855,25.391,31.250,46.875,-902.344,0
1587513962.269,4.395,28.320,27.344,7.812,-33.691,0
1587513962.273,7.324,25.879,29.785,2.930,-1000.000,0
1587513962.277,32.227,25.391,36.621,44.434,-46.387,0
1587513962.281,31.250,25.879,35.156,52.246,-841.797,0
1587513962.284,10.254,27.832,25.879,17.090,361.328,0
1587513962.288,3.418,29.785,22.461,2.441,-994.141,0
1587513962.292,29.297,27.344,26.367,40.039,-422.852,0
1587513962.296,37.598,25.879,24.902,54.688,-1000.000,0
1587513962.300,17.090,27.344,27.344,23.926,758.789,0
1587513962.295,7.324,24.414,29.785,0.000,-650.391,0
1587513962.299,31.250,25.879,34.668,32.227,-706.543,0
1587513962.303,48.828,26.855,33.691,61.035,701.172,0
1587513962.307,32.227,21.484,29.297,37.598,-996.094,0
1587513962.311,12.207,23.926,31.738,3.418,-266.113,0
1587513962.315,21.484,25.391,27.832,13.184,-998.047,0
1587513962.319,43.945,24.414,27.344,54.199,275.391,0
1587513962.322,35.156,25.879,27.344,46.387,-864.258,0
1587513962.326,16.602,26.367,30.273,13.672,64.941,0
1587513962.330,12.207,25.879,30.762,6.836,-1000.000,0
1587513962.334,36.621,26.367,26.855,45.898,-171.387,0
1587513962.338,41.016,24.902,27.832,53.223,-863.281,0
1587513962.356,17.578,23.438,27.832,19.043,487.793,0
1587513962.360,8.789,23.926,26.367,0.000,-920.410,0
1587513962.364,32.715,21.484,27.832,34.668,-508.789,0
1587513962.368,43.457,24.414,28.320,57.129,932.129,0
1587513962.372,27.832,29.297,28.320,30.273,816.406,0
1587513962.376,11.719,31.738,25.879,-0.977,-563.477,0
1587513962.380,30.273,30.273,25.879,20.996,-812.988,0
1587513962.383,50.293,28.320,25.879,54.199,560.547,0
1587513962.387,32.715,26.855,25.391,35.156,-948.242,0
1587513962.391,14.160,29.297,29.297,4.395,-164.062,0
1587513962.395,21.484,24.902,28.809,13.184,-1000.000,0
1587513962.399,45.410,26.855,31.250,53.711,128.418,0
1587513962.396,40.039,29.297,31.738,51.270,-848.633,0
1587513962.400,24.414,28.320,32.227,25.879,215.332,0
1587513962.404,21.973,32.227,31.250,12.207,-1000.000,0
1587513962.408,42.480,32.227,27.832,40.527,-268.555,0
1587513962.412,44.922,30.762,26.367,54.199,-903.320,0
1587513962.416,19.043,26.855,27.832,20.996,578.613,0
1587513962.420,10.254,23.926,34.668,-1.953,-815.430,0
1587513962.423,36.621,23.438,31.738,33.203,-603.516,0
1587513962.427,52.734,23.926,31.250,65.430,832.520,0
1587513962.431,35.156,20.020,33.691,38.574,882.812,0
1587513962.435,17.090,24.414,31.250,3.906,-479.004,0
1587513962.439,30.273,28.809,33.691,23.926,-887.695,0
1587513962.435,51.270,27.832,37.598,61.035,461.914,0
1587513962.439,43.945,33.203,39.551,48.828,-914.062,0
1587513962.443,17.578,31.250,36.133,10.742,-65.430,0
1587513962.447,12.207,21.973,34.668,4.883,-1000.000,0
1587513962.451,40.039,21.973,41.016,50.781,7.324,0
1587513962.455,40.039,24.902,37.598,54.688,-837.891,0
1587513962.459,17.578,22.949,32.227,15.137,344.727,0
1587513962.462,8.789,23.926,30.273,-2.441,-1000.000,0
1587513962.466,37.109,30.273,33.691,35.645,-377.930,0
1587513962.470,49.316,34.668,34.180,53.223,-954.590,0
1587513962.474,27.832,36.133,26.855,20.508,725.586,0
1587513962.478,13.184,35.645,25.879,-3.418,-689.941,0
1587513962.496,31.250,31.250,31.738,28.320,-680.664,0
1587513962.500,44.434,26.855,36.621,58.594,731.445,0
1587513962.504,26.855,20.508,37.109,36.621,974.609,0
1587513962.508,13.672,19.043,36.621,6.348,-313.965,0
1587513962.512,28.320,25.879,35.156,20.996,-963.867,0
1587513962.516,50.781,33.203,33.691,62.988,328.613,0
1587513962.520,36.133,30.762,30.762,42.969,-880.371,0
1587513962.523,11.230,32.715,31.250,0.977,58.105,0
1587513962.527,9.766,35.645,29.785,-3.418,-1000.000,0
1587513962.531,30.273,29.785,29.297,31.250,-120.117,0
1587513962.535,33.203,22.949,32.227,40.039,-847.168,0
1587513962.539,10.254,21.973,27.832,6.836,438.477,0
1587513962.537,1.465,25.391,27.344,-9.766,-950.195,0
1587513962.541,32.715,24.902,34.668,39.062,-471.191,0
1587513962.545,48.828,20.996,37.109,70.312,964.844,0
1587513962.549,25.879,20.996,25.879,33.691,787.109,0
1587513962.553,7.812,26.855,22.461,-2.930,-602.539,0
1587513962.557,23.438,29.785,28.809,20.996,-768.066,0
1587513962.561,40.527,31.250,28.320,54.199,620.117,0
1587513962.564,22.461,30.273,26.367,32.227,-978.516,0
1587513962.568,-3.418,21.973,26.855,-7.812,-215.820,0
1587513962.572,11.230,20.996,30.273,4.883,-1000.000,0
1587513962.576,41.992,23.926,29.297,50.293,197.754,0
1587513962.580,36.133,23.926,27.344,46.387,-856.934,0
1587513962.576,15.137,26.855,25.879,12.207,155.273,0
1587513962.580,11.230,28.320,25.391,3.418,-1000.000,0
1587513962.584,32.227,22.949,27.344,41.016,-232.422,0
1587513962.588,34.668,25.391,28.320,48.828,-877.441,0
1587513962.592,12.207,27.832,26.855,7.812,553.711,0
1587513962.596,-3.418,23.926,29.297,-17.090,-864.746,0
1587513962.600,16.602,21.973,28.320,18.066,-547.852,0
1587513962.603,38.086,23.438,28.809,46.875,888.184,0
1587513962.607,24.902,25.879,31.738,23.438,850.586,0
1587513962.611,11.230,26.855,29.297,-4.395,-507.812,0
1587513962.615,32.227,28.809,31.250,20.508,-838.379,0
1587513962.619,52.246,25.879,33.203,57.617,523.926,0
1587513962.635,36.133,26.367,28.809,42.480,-942.383,0
1587513962.639,8.301,31.738,26.855,2.441,-131.836,0
1587513962.643,10.254,29.785,28.809,1.953,-1000.000,0
1587513962.647,37.598,27.344,29.297,44.922,76.660,0
1587513962.651,33.203,24.414,27.344,46.387,-842.285,0
1587513962.655,14.160,25.391,23.926,12.207,244.141,0
1587513962.659,9.277,30.762,21.973,-4.883,-1000.000,0
1587513962.662,31.738,28.809,22.949,30.273,-328.613,0
1587513962.666,38.574,28.320,22.949,47.363,-936.035,0
1587513962.670,19.043,32.715,24.414,16.602,651.855,0
1587513962.674,12.207,35.156,24.902,-3.906,-754.395,0
1587513962.678,26.855,29.297,20.508,22.949,-617.188,0
1587513962.675,40.039,24.414,22.461,50.781,805.176,0
1587513962.679,34.180,32.227,30.762,37.109,933.105,0
1587513962.683,14.160,31.250,29.297,6.348,-386.230,0
1587513962.687,22.461,27.344,23.926,19.531,-915.039,0
1587513962.691,44.434,30.273,24.414,52.734,402.344,0
1587513962.695,37.598,28.320,24.414,41.016,-892.090,0
1587513962.699,18.066,26.367,20.020,4.883,10.254,0
1587513962.702,20.020,29.785,21.484,-1.465,-1000.000,0
1587513962.706,40.039,29.297,23.438,40.527,-44.922,0
1587513962.710,38.574,31.738,20.996,45.898,-839.844,0
1587513962.714,18.555,33.691,24.902,11.719,391.113,0
1587513962.718,12.207,25.391,30.273,-0.977,-975.098,0
1587513962.717,38.086,21.973,31.250,36.621,-404.785,0
1587513962.721,48.340,27.832,31.250,54.688,-976.562,0
1587513962.725,32.715,30.762,29.297,27.344,758.301,0
1587513962.729,20.020,27.344,26.367,0.488,-638.672,0
1587513962.733,36.133,26.855,22.949,27.344,-722.168,0
1587513962.737,54.199,32.227,21.484,62.500,678.711,0
1587513962.741,36.133,34.668,20.508,36.621,991.211,0
1587513962.744,11.230,27.344,19.043,-2.441,-282.227,0
1587513962.748,20.020,23.926,21.484,6.836,-992.676,0
1587513962.752,41.016,25.879,25.879,44.922,273.926,0
1587513962.756,31.738,27.832,29.785,38.574,-856.934,0
1587513962.760,16.113,31.738,32.715,3.906,125.977,0
1587513962.777,18.066,29.297,31.738,0.000,-1000.000,0
1587513962.781,41.992,27.832,33.691,40.039,-192.871,0
1587513962.785,44.434,26.855,33.203,49.316,-874.023,0
1587513962.789,18.066,26.367,29.785,13.672,496.582,0
1587513962.793,10.254,32.227,30.762,-6.348,-900.391,0
1587513962.797,28.320,26.855,30.273,27.832,-529.785,0
1587513962.801,37.598,20.020,34.180,48.340,902.832,0
1587513962.804,20.020,26.855,33.203,21.484,812.988,0
1587513962.808,8.301,30.762,32.227,-3.418,-560.059,0
1587513962.812,29.785,25.879,32.227,21.973,-796.387,0
1587513962.816,49.316,25.879,24.902,56.641,580.078,0
1587513962.820,37.598,25.391,24.414,41.016,-955.078,0
1587513962.815,19.043,24.902,29.297,7.324,-171.875,0
1587513962.819,25.879,30.273,34.180,12.695,-1000.000,0
1587513962.823,52.246,34.668,35.156,50.293,124.023,0
1587513962.827,44.922,28.809,27.344,46.875,-856.934,0
1587513962.831,18.066,26.855,27.344,18.066,212.891,0
1587513962.835,2.930,26.855,34.668,-0.488,-1000.000,0
1587513962.839,23.926,23.926,39.062,29.297,-298.828,0
1587513962.842,39.551,24.414,44.922,51.758,-916.992,0
1587513962.846,24.902,29.297,40.039,27.344,595.703,0
1587513962.850,14.160,29.785,34.180,1.465,-808.594,0
1587513962.854,31.250,26.855,37.598,30.762,-588.379,0
1587513962.858,43.457,27.344,39.551,59.082,835.938,0
1587513962.880,27.344,26.367,37.109,28.809,914.551,0
1587513962.884,9.277,25.391,34.668,-5.371,-421.387,0
1587513962.888,21.484,23.438,36.133,10.254,-881.348,0
1587513962.892,42.480,22.461,38.574,49.316,467.773,0
1587513962.896,39.551,27.832,41.992,49.316,-922.852,0
1587513962.900,24.414,28.809,44.434,20.020,-63.965,0
1587513962.904,25.879,26.367,40.527,18.555,-1000.000,0
1587513962.907,45.410,24.902,38.086,53.711,-8.301,0
1587513962.911,40.039,26.855,40.039,51.270,-851.074,0
1587513962.915,20.996,27.832,43.945,20.996,331.543,0
1587513962.919,13.184,26.855,40.039,8.301,-1000.000,0
1587513962.923,33.691,26.367,37.598,41.504,-368.652,0
1587513962.915,45.410,26.367,45.898,60.059,-954.590,0
1587513962.919,22.461,25.391,40.039,26.855,703.125,1
1587513962.923,8.301,23.438,30.762,-2.441,-698.730,0
1587513962.927,34.668,26.855,38.086,32.227,-669.922,0
1587513962.931,48.340,31.250,42.969,62.988,744.141,0
1587513962.935,26.855,29.785,35.156,36.621,962.402,0
1587513962.939,6.836,27.832,31.738,4.883,-332.031,0
1587513962.942,20.996,25.391,30.762,21.973,-958.496,0
1587513962.946,43.457,23.926,27.344,59.570,337.891,0
1587513962.950,31.738,24.414,29.297,44.434,-889.648,0
1587513962.954,15.625,24.902,32.715,10.742,24.902,0
1587513962.958,15.625,27.832,38.086,12.695,-1000.000,0
1587513962.956,40.039,28.320,40.527,53.223,-137.695,0
1587513962.960,45.410,30.762,36.621,57.129,-874.512,0
1587513962.964,19.531,28.809,30.762,17.578,436.035,0
1587513962.968,10.254,26.367,28.320,-0.977,-939.453,0
1587513962.972,28.320,25.879,24.902,32.227,-467.773,0
1587513962.976,39.062,21.973,29.297,51.758,958.496,0
1587513962.980,23.438,26.855,33.691,23.438,798.828,0
1587513962.983,2.930,25.391,23.438,-9.766,-580.566,0
1587513962.987,22.949,21.973,22.949,17.090,-772.461,0
1587513962.991,43.945,23.926,25.879,52.246,616.211,0
1587513962.995,32.227,27.344,22.949,30.762,-991.211,0
1587513962.999,19.043,27.832,31.250,3.906,-227.051,0
1587513962.997,29.297,26.367,40.039,18.066,-1000.000,0
1587513963.001,46.875,27.832,34.668,53.223,196.289,0
1587513963.005,39.062,26.855,28.809,45.410,-865.234,0
1587513963.009,21.973,25.879,33.203,12.207,177.734,0
1587513963.013,22.461,29.785,35.156,5.859,-1000.000,0
1587513963.017,45.410,28.320,30.273,43.457,-244.629,0
1587513963.021,48.828,23.926,25.391,49.316,-893.066,0
1587513963.024,31.738,27.344,28.320,19.043,518.555,0
1587513963.028,21.973,30.273,32.227,0.000,-877.930,0
1587513963.032,40.039,32.715,34.180,29.785,-553.223,0
1587513963.036,50.293,33.203,39.551,52.734,875.488,0
1587513963.040,31.250,35.156,37.109,26.855,862.305,0
1587513963.076,9.766,38.086,27.344,-7.812,-502.930,0
1587513963.080,20.996,33.203,26.367,9.277,-833.984,0
1587513963.084,43.457,27.344,24.414,45.898,527.832,0
1587513963.088,38.086,26.855,24.414,33.691,-941.406,0
1587513963.092,21.973,25.391,29.785,9.277,-109.863,0
1587513963.096,26.367,25.879,33.203,14.648,-1000.000,0
1587513963.100,45.898,28.320,36.133,52.246,30.762,0
1587513963.103,43.945,34.180,39.062,57.129,-836.914,0
1587513963.107,26.855,36.133,37.598,21.973,291.992,0
1587513963.111,17.090,32.715,34.180,4.395,-1000.000,0
1587513963.115,35.645,32.715,28.320,37.109,-345.703,0
1587513963.119,40.039,31.250,26.367,48.828,-951.172,0
1587513963.096,19.043,28.320,27.832,22.949,662.109,0
1587513963.100,6.348,26.367,28.809,3.418,-736.816,0
1587513963.104,28.809,23.926,28.320,33.203,-633.789,0
1587513963.108,42.480,21.484,31.250,59.082,783.203,0
1587513963.112,25.879,22.949,31.738,35.156,937.988,0
1587513963.116,10.742,24.902,28.320,6.836,-381.348,0
1587513963.120,17.090,24.902,31.250,18.066,-924.805,0
1587513963.123,32.227,29.297,32.227,50.293,395.996,0
1587513963.127,20.020,29.297,28.809,36.621,-893.555,0
1587513963.131,3.906,25.879,34.180,5.371,2.441,0
1587513963.135,8.789,26.855,41.504,6.836,-1000.000,0
1587513963.139,30.273,21.484,33.203,43.945,-60.547,0
1587513963.136,35.645,18.555,27.832,53.223,-842.285,0
1587513963.140,20.020,25.391,32.715,21.973,404.785,0
1587513963.144,20.996,34.668,33.691,-1.953,-973.145,0
1587513963.148,55.664,33.691,34.180,25.879,-428.223,0
1587513963.152,75.684,34.180,30.762,41.016,-998.047,0
1587513963.156,64.453,38.086,28.320,9.277,737.793,0
1587513963.160,50.781,35.645,25.391,-21.484,-651.367,0
1587513963.163,64.453,28.809,20.996,0.000,-736.816,0
1587513963.167,72.266,30.273,23.926,29.785,658.203,0
1587513963.171,46.387,27.832,26.367,19.043,990.234,0
1587513963.175,22.461,28.320,33.691,2.441,-278.809,0
1587513963.179,26.855,31.738,34.668,19.043,-1000.000,0
1587513963.195,42.480,26.855,34.668,61.523,243.652,0
1587513963.199,30.762,24.902,35.645,57.129,-869.629,0
1587513963.203,7.324,25.391,24.902,16.602,129.883,0
1587513963.207,3.418,27.344,20.508,0.977,-1000.000,0
1587513963.211,27.344,27.344,22.461,37.598,-207.031,0
1587513963.215,33.691,26.855,24.414,49.805,-895.508,0
1587513963.219,16.113,27.832,25.879,22.461,493.164,0
1587513963.222,11.230,28.320,29.785,7.812,-887.207,0
1587513963.226,31.738,25.879,34.668,40.039,-514.160,0
1587513963.230,41.992,26.855,35.645,62.012,917.969,0
1587513963.234,27.832,25.391,29.785,33.691,827.637,0
1587513963.238,15.137,25.879,29.785,5.371,-543.945,0
1587513963.256,31.250,27.344,32.227,26.855,-790.527,0
1587513963.260,44.922,22.949,31.738,57.129,581.543,0
1587513963.264,35.156,29.297,36.133,45.410,-944.824,0
1587513963.268,21.973,34.668,35.156,12.695,-143.066,0
1587513963.272,23.438,31.738,28.809,9.277,-1000.000,0
1587513963.276,42.480,28.809,26.367,45.898,144.043,0
1587513963.280,40.527,27.344,24.414,42.480,-846.191,0
1587513963.283,20.996,28.320,25.391,11.230,229.492,0
1587513963.287,16.113,27.832,24.902,-0.977,-1000.000,0
1587513963.291,40.527,26.367,28.809,31.738,-306.641,0
1587513963.295,46.387,24.414,33.203,52.246,-920.898,0
1587513963.299,32.715,31.250,32.227,29.297,619.629,0
1587513963.296,16.602,34.180,29.785,-0.488,-785.645,0
1587513963.300,26.855,22.949,32.715,23.926,-600.098,0
1587513963.304,38.574,15.137,30.762,47.852,831.543,0
1587513963.308,23.926,19.043,33.203,24.902,896.973,0
1587513963.312,14.160,25.391,39.062,3.418,-439.453,0
1587513963.316,27.344,23.438,36.621,22.949,-890.137,0
1587513963.320,46.387,21.973,40.039,56.641,439.453,0
1587513963.323,35.156,25.879,40.039,41.992,-906.250,0
1587513963.327,9.277,23.926,31.738,8.301,-28.320,0
1587513963.331,9.766,19.043,32.715,3.906,-1000.000,0
1587513963.335,34.180,16.113,39.551,41.504,0.977,0
1587513963.339,35.156,18.555,42.480,50.781,-850.586,0
1587513963.335,20.996,25.391,44.922,22.949,311.035,0
1587513963.339,18.555,24.902,44.434,9.766,-1000.000,0
1587513963.343,41.016,26.367,41.016,41.016,-390.625,0
1587513963.347,52.734,32.715,44.434,61.035,-976.562,0
1587513963.351,37.109,35.645,42.480,37.109,717.773,0
1587513963.355,11.719,27.832,36.621,0.977,-687.988,0
1587513963.359,20.996,23.438,37.109,21.973,-683.594,0
1587513963.362,38.574,24.414,42.969,54.199,728.027,0
1587513963.366,22.461,20.996,42.480,26.367,956.055,0
1587513963.370,8.301,25.879,39.551,-4.883,-335.938,0
1587513963.374,27.344,31.250,39.551,10.742,-967.773,0
1587513963.378,53.711,30.762,39.551,48.340,301.758,0
1587513963.376,45.410,26.855,39.062,41.016,-876.465,0
1587513963.380,25.391,26.367,40.527,9.766,88.379,0
1587513963.384,25.879,29.785,41.016,5.371,-1000.000,0
1587513963.388,55.176,28.809,41.992,45.898,-124.023,0
1587513963.392,57.617,30.273,45.898,58.105,-854.980,0
1587513963.396,31.250,32.715,39.062,21.484,424.316,0
1587513963.400,17.578,29.297,34.180,-4.883,-953.613,0
1587513963.403,42.480,28.809,36.621,25.879,-473.633,0
1587513963.407,57.129,28.320,33.203,48.340,958.496,0
1587513963.411,34.668,25.391,31.250,18.066,755.371,0
1587513963.415,18.066,29.297,34.180,-10.742,-624.512,0
1587513963.419,39.062,30.762,31.738,14.648,-754.883,0
1587513963.435,62.012,27.832,27.832,47.852,621.582,0
1587513963.439,56.641,33.691,31.250,35.645,-992.676,0
1587513963.443,41.016,41.016,31.738,4.395,-224.609,0
1587513963.447,41.016,32.715,31.738,5.859,-1000.000,0
1587513963.451,60.547,25.391,30.762,41.992,184.082,0
1587513963.455,49.805,27.344,25.391,36.621,-870.605,0
1587513963.459,26.367,25.391,22.461,0.977,125.488,0
1587513963.462,32.715,31.738,29.785,-1.953,-1000.000,0
1587513963.466,54.688,33.691,34.180,38.574,-245.117,0
1587513963.470,52.734,28.320,32.227,49.805,-895.508,0
1587513963.474,29.785,26.855,32.715,20.996,572.754,0
1587513963.478,17.578,28.809,30.762,1.465,-837.891,0
1587513963.476,36.621,29.785,35.645,33.691,-573.730,0
1587513963.480,41.016,26.367,33.203,51.758,856.445,0
1587513963.484,25.391,26.855,29.785,28.809,864.746,0
1587513963.488,19.531,30.762,36.621,10.254,-488.281,0
1587513963.492,38.086,29.785,40.039,33.203,-843.262,0
1587513963.496,57.617,24.414,39.062,63.965,520.020,0
1587513963.500,43.945,26.367,37.109,49.316,-951.660,0
1587513963.503,22.461,28.320,37.109,22.461,-125.488,0
1587513963.507,21.973,24.414,35.645,24.902,-1000.000,0
1587513963.511,37.109,21.973,32.715,57.129,28.809,0
1587513963.515,32.227,23.438,28.320,55.664,-896.484,0
1587513963.519,15.137,26.367,34.180,26.855,249.512,0
1587513963.517,13.184,27.832,37.598,9.766,-1000.000,0
1587513963.521,33.691,25.391,35.156,42.480,-341.309,0
1587513963.525,35.645,27.832,34.180,59.570,-945.312,0
1587513963.529,13.672,30.762,31.250,31.250,653.809,0
1587513963.533,1.465,27.832,25.879,8.789,-746.094,0
1587513963.537,20.996,25.391,26.367,34.668,-635.254,0
1587513963.541,33.203,26.367,23.438,58.105,789.062,0
1587513963.544,18.066,28.809,20.508,32.227,939.941,0
1587513963.548,8.301,31.250,26.367,4.395,-378.906,0
1587513963.552,20.996,27.344,32.715,20.996,-930.664,0
1587513963.556,41.016,30.273,35.645,59.082,386.719,0
1587513963.560,31.250,30.762,32.227,50.781,-909.180,0
1587513963.576,9.766,25.879,31.738,16.113,-22.461,0
1587513963.580,14.160,26.855,33.203,14.648,-1000.000,0
1587513963.584,37.598,24.902,32.227,52.246,-59.570,0
1587513963.588,38.086,26.855,32.227,57.129,-863.281,0
1587513963.592,20.020,28.809,32.227,24.414,408.691,0
1587513963.596,11.230,25.879,32.715,6.836,-942.871,0
1587513963.600,32.227,27.832,30.762,41.992,-453.125,0
1587513963.603,43.945,31.738,36.133,65.430,968.750,0
1587513963.607,21.484,24.414,38.574,32.227,742.676,0
1587513963.611,4.395,22.461,35.156,2.930,-647.949,0
1587513963.615,19.043,24.414,30.273,28.320,-726.562,0
1587513963.619,31.738,23.438,26.367,52.246,671.387,0
1587513963.616,19.043,28.320,26.855,31.738,992.676,0
1587513963.620,6.348,26.855,31.250,5.859,-276.367,0
1587513963.624,21.973,24.414,35.156,21.973,-993.652,0
1587513963.628,45.410,25.391,29.785,59.082,267.090,0
1587513963.632,42.480,24.414,25.879,52.734,-876.465,0
1587513963.636,24.902,27.832,32.227,26.855,112.793,0
1587513963.640,23.438,31.250,34.180,20.020,-1000.000,0
1587513963.643,49.316,33.691,31.250,51.270,-195.801,0
1587513963.647,50.293,33.203,30.762,58.105,-900.879,0
1587513963.651,27.344,29.297,23.926,23.438,470.703,0
1587513963.655,20.020,29.785,20.020,4.883,-900.391,0
1587513963.659,42.480,32.715,29.297,34.180,-536.621,0
1587513963.662,50.293,31.738,29.297,55.176,901.367,0
1587513963.666,30.762,25.879,29.785,31.250,817.383,0
1587513963.670,13.672,25.879,29.297,2.930,-553.223,0
1587513963.674,26.855,26.855,23.926,19.043,-796.875,0
1587513963.678,47.852,28.320,24.414,50.293,569.336,0
1587513963.682,43.457,30.762,25.391,42.969,-962.891,0
1587513963.686,17.578,31.250,26.855,5.859,-161.621,0
1587513963.689,13.672,36.133,32.715,4.395,-1000.000,0
1587513963.693,38.086,35.156,35.645,42.480,116.699,0
1587513963.697,32.227,26.855,35.645,40.039,-857.422,0
1587513963.701,14.648,28.320,38.574,12.207,234.375,0
1587513963.705,15.625,28.809,37.109,4.883,-1000.000,0
1587513963.735,36.621,23.926,30.762,39.551,-290.527,0
1587513963.739,38.574,21.973,30.273,54.199,-909.668,0
1587513963.743,18.555,24.902,34.180,24.902,627.441,0
1587513963.747,9.277,26.367,31.738,1.953,-774.902,0
1587513963.751,29.785,25.391,29.297,31.738,-600.586,0
1587513963.755,44.922,30.273,34.180,63.477,832.520,0
1587513963.759,31.738,32.715,30.762,43.945,887.207,0
1587513963.762,13.184,25.879,27.344,10.254,-459.473,0
1587513963.766,24.414,20.996,29.785,22.461,-888.184,0
1587513963.770,41.504,23.438,27.344,54.688,439.453,0
1587513963.774,28.809,23.438,27.344,40.039,-911.133,0
1587513963.778,10.254,26.367,26.855,4.395,-41.504,0
1587513963.758,9.277,23.926,25.391,3.418,-1000.000,0
1587513963.762,27.344,22.461,29.297,41.504,11.230,0
1587513963.766,22.461,24.902,30.762,41.992,-868.164,0
1587513963.770,-3.906,22.461,28.320,3.418,304.688,0
1587513963.774,-2.930,21.973,31.738,-9.277,-1000.000,0
1587513963.778,28.320,22.949,30.762,32.227,-400.391,0
1587513963.782,31.738,24.902,25.391,50.781,-995.605,0
1587513963.785,12.695,25.879,28.320,23.438,692.383,0
1587513963.789,3.418,25.879,33.203,1.465,-697.266,0
1587513963.793,25.879,23.926,32.715,29.785,-685.547,0
1587513963.797,41.992,23.438,28.320,55.664,713.867,0
1587513963.801,24.902,24.414,27.344,32.227,979.492,0
1587513963.795,5.371,25.879,24.414,0.000,-299.316,0
1587513963.799,24.414,27.344,25.391,15.625,-968.262,0
1587513963.803,51.758,24.902,29.297,57.129,319.824,0
1587513963.807,45.410,26.855,28.320,50.293,-891.113,0
1587513963.811,27.344,30.273,27.832,17.578,43.945,0
1587513963.815,23.926,29.785,23.438,11.230,-1000.000,0
1587513963.819,42.969,25.391,23.926,49.316,-122.559,0
1587513963.822,42.480,24.902,25.391,55.664,-856.445,0
1587513963.826,25.879,28.809,20.996,21.973,426.758,0
1587513963.830,21.484,33.203,24.902,7.324,-946.289,0
1587513963.834,42.969,33.203,27.344,38.086,-476.562,0
1587513963.838,52.734,31.738,25.391,55.664,947.754,0
1587513963.857,32.227,28.809,24.902,27.344,798.340,0
1587513963.861,17.090,24.902,22.949,1.953,-584.961,0
1587513963.865,32.227,27.344,20.508,25.879,-754.883,0
1587513963.869,48.340,30.762,20.996,54.688,638.672,0
1587513963.873,31.738,27.344,19.531,31.738,-983.887,0
1587513963.877,8.789,25.391,18.555,-1.465,-226.074,0
1587513963.881,18.066,25.879,20.996,7.324,-1000.000,0
1587513963.884,41.016,28.320,22.949,41.504,184.082,0
1587513963.888,37.109,30.273,22.949,37.598,-865.723,0
1587513963.892,18.066,29.785,22.461,7.324,171.875,0
1587513963.896,14.160,26.855,23.926,-2.930,-1000.000,0
1587513963.900,39.062,27.832,24.902,33.691,-250.000,0
1587513963.895,44.434,29.785,26.367,49.316,-896.484,0
1587513963.899,23.438,26.367,25.879,21.484,561.523,0
1587513963.903,9.766,22.949,22.461,0.977,-849.121,0
1587513963.907,26.367,18.555,21.973,30.762,-537.598,0
1587513963.911,41.504,19.531,22.461,54.199,901.367,0
1587513963.915,25.391,22.461,23.438,29.785,845.215,0
1587513963.919,9.277,24.414,25.391,3.906,-508.789,0
1587513963.922,23.438,28.320,27.344,20.508,-855.469,0
1587513963.926,39.062,33.203,29.785,46.387,496.094,0
1587513963.930,27.344,30.762,26.367,28.320,-952.637,0
1587513963.934,12.207,27.344,25.391,-3.418,-129.883,0
1587513963.938,20.508,27.344,27.344,4.395,-1000.000,0
1587513963.935,46.875,24.902,27.344,45.898,45.898,0
1587513963.939,45.410,29.297,24.414,45.898,-851.562,0
1587513963.943,23.926,30.762,19.043,13.184,255.859,0
1587513963.947,19.531,27.344,23.438,2.930,-1000.000,0
1587513963.951,41.016,28.809,26.367,43.945,-345.215,0
1587513963.955,43.945,30.273,22.461,55.176,-960.938,0
1587513963.959,17.090,29.297,20.508,19.531,650.879,0
1587513963.962,4.395,25.391,24.902,-3.418,-740.234,0
1587513963.966,28.320,26.367,28.320,29.785,-653.809,0
1587513963.970,48.340,26.367,29.297,59.570,766.113,0
1587513963.974,35.156,27.344,28.320,36.621,918.457,0
1587513963.978,16.113,27.832,30.273,4.883,-399.414,0
1587513963.996,29.785,31.250,30.762,21.973,-931.641,0
1587513964.000,51.270,29.785,24.902,54.199,375.488,0
1587513964.004,38.574,21.973,25.391,41.016,-915.039,0
1587513964.008,17.090,24.414,32.227,13.672,-8.789,0
1587513964.012,16.602,32.715,31.250,7.812,-1000.000,0
1587513964.016,37.598,34.180,26.855,41.504,-43.457,0
1587513964.020,41.992,29.785,29.785,50.293,-870.605,0
1587513964.023,26.367,30.762,36.133,20.996,362.793,0
1587513964.027,13.672,27.344,34.668,0.488,-959.473,0
1587513964.031,32.715,27.344,29.297,33.691,-428.223,2
1587513964.035,40.527,30.762,27.832,52.246,985.840,0
1587513964.039,17.578,27.344,27.344,20.508,738.770,0
1587513964.036,3.906,25.879,30.273,-4.883,-644.043,0
1587513964.040,23.926,23.926,30.273,19.531,-723.633,0
1587513964.044,42.969,25.391,27.832,48.828,672.363,0
1587513964.048,30.273,29.297,26.855,31.738,986.328,0
1587513964.052,13.672,28.809,24.902,-0.488,-279.785,0
1587513964.056,25.391,28.320,28.320,14.160,-1000.000,0
1587513964.060,49.805,33.203,28.320,54.688,242.676,0
1587513964.063,42.969,33.203,24.414,47.363,-868.652,0
1587513964.067,21.973,26.367,28.320,19.043,117.188,0
1587513964.071,15.625,24.414,30.273,10.254,-1000.000,0
1587513964.075,32.227,24.414,30.273,43.457,-200.195,0
1587513964.079,36.621,24.902,32.227,54.199,-889.160,0
1587513964.075,19.531,24.414,32.715,23.926,520.996,0
1587513964.079,8.301,25.391,30.273,2.930,-870.117,0
1587513964.083,24.902,29.297,27.344,28.809,-531.250,0
1587513964.087,36.621,29.785,30.762,49.316,905.762,0
1587513964.091,21.484,26.367,29.297,23.438,838.379,0
1587513964.095,3.418,24.902,18.555,-12.695,-535.645,0
1587513964.099,20.996,25.391,20.508,10.742,-813.965,0
1587513964.102,45.410,24.902,22.461,42.969,556.152,0
1587513964.106,37.598,29.297,20.996,23.926,-977.051,0
1587513964.110,14.648,26.855,21.484,-7.324,-181.152,0
1587513964.114,18.066,24.414,21.484,-0.977,-1000.000,0
1587513964.118,42.969,26.367,22.461,42.969,122.070,0
1587513964.135,38.574,29.297,17.578,40.527,-865.234,0
1587513964.139,18.066,31.250,17.578,7.324,210.938,0
1587513964.143,10.742,29.785,16.113,-1.465,-1000.000,0
1587513964.147,35.645,31.250,18.066,34.668,-310.059,0
1587513964.151,41.016,33.691,24.902,49.316,-926.758,0
1587513964.155,22.949,34.668,20.508,18.066,596.191,0
1587513964.159,19.531,35.156,22.949,-1.953,-816.895,0
1587513964.162,41.016,32.715,30.273,31.738,-596.680,0
1587513964.166,53.711,31.250,29.297,61.523,830.566,0
1587513964.170,31.250,27.832,26.855,34.668,895.020,0
1587513964.174,13.184,28.320,26.855,-1.465,-434.570,0
1587513964.178,27.832,31.738,30.762,18.555,-880.371,0
1587513964.176,45.410,30.762,29.297,58.105,453.613,0
1587513964.180,43.457,33.203,31.250,49.316,-915.039,0
1587513964.184,25.879,34.180,35.156,15.137,-44.922,0
1587513964.188,28.809,36.621,31.250,17.578,-1000.000,0
1587513964.192,52.734,34.668,27.832,55.664,-5.371,0
1587513964.196,43.945,30.762,24.414,50.293,-866.699,0
1587513964.200,23.926,28.809,22.461,17.578,334.961,0
1587513964.203,21.484,27.832,25.879,7.812,-991.211,0
1587513964.207,42.480,24.414,32.227,44.434,-381.348,0
1587513964.211,48.828,19.043,28.809,59.082,-973.145,0
1587513964.215,28.809,22.949,31.738,29.297,698.730,0
1587513964.219,15.625,24.414,34.668,5.371,-690.918,0
1587513964.217,33.691,23.438,34.180,35.645,-673.828,0
1587513964.221,41.992,24.902,32.227,57.617,727.051,0
1587513964.225,19.531,24.902,27.832,24.414,956.055,0
1587513964.229,2.930,26.855,30.762,-7.324,-318.848,0
1587513964.233,11.719,27.344,31.738,4.395,-970.703,0
1587513964.237,28.320,25.391,28.809,40.039,303.711,0
1587513964.241,27.344,25.879,29.785,35.156,-892.578,0
1587513964.244,13.672,28.809,31.250,3.906,47.363,0
1587513964.248,14.160,28.320,27.344,-2.930,-1000.000,0
1587513964.252,39.551,29.785,27.344,34.180,-121.582,0
1587513964.256,41.016,30.762,24.414,43.457,-854.492,0
1587513964.260,18.066,26.367,17.578,11.230,470.703,0
1587513964.275,11.230,27.832,21.484,-6.348,-920.410,0
1587513964.279,38.086,25.879,29.297,31.250,-479.492,0
1587513964.283,51.758,26.367,28.809,55.664,947.754,0
1587513964.287,27.832,25.391,24.414,24.902,780.273,0
1587513964.291,8.301,24.414,25.391,-3.418,-593.750,0
1587513964.295,27.832,25.879,28.809,25.879,-771.973,0
1587513964.299,43.945,25.391,23.926,57.129,605.469,0
1587513964.302,33.691,24.414,23.438,35.156,-998.535,0
1587513964.306,19.043,25.879,27.344,5.371,-227.051,0
1587513964.310,24.902,29.785,22.949,16.113,-1000.000,0
1587513964.314,48.340,27.832,22.461,50.781,178.711,0
1587513964.318,48.828,25.879,26.367,51.270,-874.512,0
1587513964.315,31.250,27.832,29.785,22.949,130.859,0
1587513964.319,23.926,30.273,31.738,10.742,-1000.000,0
1587513964.323,43.457,28.809,28.320,43.457,-250.977,0
1587513964.327,48.340,25.391,30.762,55.664,-921.875,0
1587513964.331,26.855,23.926,31.250,23.438,543.457,0
1587513964.335,14.160,24.414,27.344,1.465,-842.773,0
1587513964.339,35.156,23.926,30.273,33.203,-565.918,0
1587513964.342,52.734,21.973,27.832,60.059,859.375,0
1587513964.346,38.574,24.414,24.414,36.621,857.910,0
1587513964.350,18.555,30.273,25.879,7.324,-491.699,0
1587513964.354,30.273,33.203,30.762,26.855,-863.770,0
1587513964.358,51.758,27.832,30.273,58.594,484.375,0
1587513964.356,41.016,26.367,29.297,45.898,-943.848,0
1587513964.360,20.020,28.809,33.203,20.020,-121.094,0
1587513964.364,23.438,25.879,36.133,21.973,-1000.000,0
1587513964.368,43.945,26.367,34.180,54.199,66.895,0
1587513964.372,34.668,26.855,31.250,45.410,-842.773,0
1587513964.376,16.113,28.320,31.250,13.184,291.016,0
1587513964.380,15.137,31.738,28.809,5.371,-1000.000,0
1587513964.383,37.109,32.227,28.320,41.992,-359.863,0
1587513964.387,45.898,31.250,32.715,57.129,-960.449,0
1587513964.391,26.855,28.809,28.809,28.320,658.691,0
1587513964.395,17.090,27.344,26.855,7.812,-750.977,0
1587513964.399,40.039,22.949,26.367,37.109,-641.113,0
1587513964.415,48.828,25.879,22.949,60.059,773.926,0
1587513964.419,36.621,30.762,28.320,38.574,941.406,0
1587513964.423,23.438,30.762,29.297,10.254,-374.512,0
1587513964.427,37.598,31.738,27.344,20.996,-923.340,0
1587513964.431,67.383,38.574,29.297,48.828,393.066,0
1587513964.435,61.523,41.504,21.973,27.832,-895.020,0
1587513964.439,48.828,32.715,19.531,-6.836,16.113,0
1587513964.442,52.246,28.320,20.996,-15.137,-1000.000,0
1587513964.446,75.684,30.273,22.461,19.531,-70.801,0
1587513964.450,74.219,31.738,23.926,30.762,-856.934,0
1587513964.454,39.551,31.250,22.461,4.883,404.785,0
1587513964.458,20.020,32.227,30.273,-4.883,-960.938,0
1587513964.456,35.156,31.250,34.180,34.180,-436.035,0
1587513964.460,35.156,27.344,27.832,57.129,984.863,0
1587513964.464,7.324,28.809,25.879,28.320,738.281,0
1587513964.468,-5.859,29.297,26.367,3.418,-634.277,0
1587513964.472,19.531,27.344,26.855,34.668,-727.051,0
1587513964.476,33.691,26.367,23.438,65.918,661.621,0
1587513964.480,14.648,24.902,19.531,40.039,979.004,0
1587513964.483,-0.977,29.785,23.438,8.789,-274.902,0
1587513964.487,8.789,32.715,23.438,19.531,-1000.000,0
1587513964.491,30.762,30.762,23.438,50.781,222.168,0
1587513964.495,22.461,24.902,28.809,40.039,-893.555,0
1587513964.499,1.953,21.973,29.297,11.230,87.402,0
1587513964.497,4.395,26.855,24.414,7.324,-1000.000,0
1587513964.501,27.344,25.391,20.996,37.598,-191.406,0
1587513964.505,26.855,24.902,21.484,43.457,-896.484,0
1587513964.509,7.324,26.367,25.391,14.648,493.164,0
1587513964.513,3.906,23.926,28.320,0.977,-888.184,0
1587513964.517,30.273,24.414,28.809,39.551,-515.625,0
1587513964.521,31.250,27.344,27.344,52.734,921.875,0
1587513964.524,8.789,30.762,23.926,17.090,796.875,0
1587513964.528,2.441,29.785,23.438,-6.348,-572.266,0
1587513964.532,20.020,28.809,24.902,15.137,-807.617,0
1587513964.536,39.551,27.344,23.926,47.852,556.152,0
1587513964.540,28.320,25.391,26.855,34.180,-963.867,0
1587513964.556,8.789,31.250,30.273,3.906,-170.898,0
1587513964.560,17.090,33.691,32.715,11.719,-1000.000,0
1587513964.564,38.086,26.367,32.715,46.387,127.930,0
1587513964.568,38.086,29.297,31.738,46.387,-851.074,0
1587513964.572,21.484,32.715,26.367,18.555,230.957,0
1587513964.576,15.625,30.762,20.996,6.836,-1000.000,0
1587513964.580,37.109,30.762,24.414,38.086,-309.570,0
1587513964.583,48.828,33.691,30.273,54.199,-938.965,0
1587513964.587,32.227,38.574,32.227,27.832,614.746,0
1587513964.591,15.137,35.645,28.320,0.488,-777.344,0
1587513964.595,34.668,33.691,27.832,24.902,-586.914,0
1587513964.599,50.293,32.227,35.156,55.176,833.984,0
1587513964.595,33.691,30.762,39.551,37.598,912.109,0
1587513964.599,17.090,26.855,31.738,7.324,-410.156,0
1587513964.603,32.227,29.297,25.879,26.367,-886.230,0
1587513964.607,50.781,31.250,30.762,59.082,444.336,0
1587513964.611,40.039,33.691,36.621,48.340,-912.109,0
1587513964.615,22.461,32.227,38.086,21.973,-46.387,0
1587513964.619,25.391,31.738,38.086,19.043,-1000.000,0
1587513964.622,48.340,37.598,39.062,55.176,-9.277,0
1587513964.626,43.457,34.180,32.715,54.199,-864.746,0
1587513964.630,21.973,33.203,27.344,14.160,318.848,0
1587513964.634,17.090,31.738,28.809,-2.930,-1000.000,0
1587513964.638,40.039,28.320,27.344,31.738,-387.207,0
1587513964.635,46.875,30.273,23.438,48.340,-978.516,0
1587513964.639,26.855,30.762,24.414,20.996,676.270,0
1587513964.643,21.973,33.203,30.762,0.488,-706.543,0
1587513964.647,42.969,35.645,29.785,24.902,-688.965,0
1587513964.651,53.223,32.227,26.855,50.293,708.496,0
1587513964.655,41.016,30.762,30.273,33.691,958.008,0
1587513964.659,30.762,32.715,33.691,6.836,-325.684,0
1587513964.662,37.109,32.227,31.738,15.137,-969.238,0
1587513964.666,51.758,30.762,29.297,46.387,313.965,0
1587513964.670,43.945,30.762,28.809,38.086,-895.020,0
1587513964.674,27.344,33.691,30.762,5.859,41.992,0
1587513964.678,23.926,29.297,30.762,-1.465,-1000.000,0
1587513964.696,41.016,26.855,29.785,30.273,-149.414,0
1587513964.700,39.551,30.762,28.320,34.180,-874.023,0
1587513964.704,20.020,31.738,27.344,4.883,455.566,0
1587513964.708,11.230,28.809,23.438,-16.113,-920.410,0
1587513964.712,33.203,29.297,25.391,13.672,-479.004,0
1587513964.716,45.410,32.227,30.762,38.574,946.777,0
1587513964.720,31.250,29.785,35.156,16.113,760.742,0
1587513964.723,16.602,27.344,38.574,-13.672,-601.562,0
1587513964.727,35.645,29.785,37.598,7.812,-766.113,0
1587513964.731,51.270,32.227,30.762,41.504,613.770,0
1587513964.735,35.156,35.156,26.855,26.367,994.141,0
1587513964.739,19.531,32.715,33.691,1.465,-238.770,0
1587513964.742,25.879,29.785,40.039,12.695,-1000.000,0
1587513964.746,47.363,30.273,41.992,51.270,162.109,0
1587513964.750,43.457,30.273,42.480,51.758,-869.141,0
1587513964.754,18.066,28.809,34.180,16.602,165.039,0
1587513964.758,12.695,27.344,31.738,4.883,-1000.000,0
1587513964.762,43.457,33.203,41.992,47.363,-270.020,0
1587513964.766,48.828,36.621,40.527,62.012,-936.523,0
1587513964.769,24.414,30.273,41.504,29.297,532.227,0
1587513964.773,14.160,29.785,44.434,9.766,-850.098,0
1587513964.777,29.785,33.203,39.551,38.086,-573.730,0
1587513964.781,34.180,32.227,39.551,55.176,839.355,0
1587513964.785,9.766,24.902,38.574,23.926,847.656,0
1587513964.796,-1.465,29.297,41.992,-5.859,-489.258,0
1587513964.800,24.902,41.016,52.246,21.973,-859.375,0
1587513964.804,40.527,34.668,54.199,55.664,489.746,0
1587513964.808,24.414,26.367,49.805,41.016,-923.828,0
1587513964.812,8.789,29.297,50.293,14.160,-86.426,0
1587513964.816,16.602,29.297,47.852,15.625,-1000.000,0
1587513964.820,40.039,27.832,48.828,48.828,47.852,0
1587513964.823,38.574,28.320,53.223,48.828,-876.465,0
1587513964.827,23.438,30.273,61.523,26.367,276.855,0
1587513964.831,14.160,32.227,67.871,13.672,-1000.000,0
1587513964.835,29.785,37.598,67.871,42.480,-349.121,0
1587513964.839,33.203,36.621,62.988,54.688,-966.309,0
1587513964.856,9.277,30.273,62.988,19.043,654.297,0
1587513964.860,1.465,28.809,70.801,0.977,-728.027,0
1587513964.864,26.367,31.250,77.148,31.738,-639.160,0
1587513964.868,43.457,32.227,78.125,57.129,775.391,0
1587513964.872,27.832,27.344,77.148,35.645,924.316,0
1587513964.876,9.766,26.855,77.148,0.488,-389.160,0
1587513964.880,22.949,29.297,74.707,13.184,-931.152,0
1587513964.883,44.922,34.668,75.684,52.246,370.605,0
1587513964.887,35.156,36.133,81.055,45.898,-896.484,0
1587513964.891,19.531,32.715,78.613,13.672,22.461,0
1587513964.895,25.879,31.738,75.684,15.137,-1000.000,0
1587513964.899,43.457,25.879,76.172,56.152,-103.027,0
1587513964.876,41.504,25.391,71.777,59.082,-880.859,0
1587513964.880,22.949,31.250,69.336,29.297,391.113,0
1587513964.884,13.184,29.785,67.383,10.254,-958.496,0
1587513964.888,33.691,29.297,63.477,41.016,-439.941,0
1587513964.892,42.480,31.250,62.012,59.570,979.492,0
1587513964.896,23.438,28.809,55.664,26.367,723.633,0
1587513964.900,7.812,26.855,51.758,-0.488,-658.691,0
1587513964.903,20.020,27.344,53.711,25.391,-715.820,0
1587513964.907,33.203,26.367,54.199,51.758,668.945,0
1587513964.911,21.484,25.879,54.199,30.762,981.445,0
1587513964.915,3.906,30.762,51.270,-2.441,-270.508,0
1587513964.919,16.113,29.785,51.270,13.184,-1000.000,0
1587513964.935,39.551,25.391,53.223,52.246,246.582,0
1587513964.939,34.180,26.367,50.293,43.945,-896.973,0
1587513964.943,20.996,28.320,51.270,13.672,86.914,0
1587513964.947,19.531,30.273,51.270,3.906,-1000.000,0
1587513964.951,41.016,31.738,49.805,42.969,-200.195,0
1587513964.955,44.434,31.738,46.387,54.688,-909.180,0
1587513964.959,19.043,29.297,42.480,17.578,484.863,0
1587513964.962,4.395,33.203,37.109,-4.883,-884.277,0
1587513964.966,23.438,31.250,32.227,29.297,-523.926,0
1587513964.970,33.691,26.855,32.715,52.734,906.250,0
1587513964.974,13.672,26.855,36.621,25.879,819.336,0
1587513964.978,0.488,24.414,36.133,-0.488,-543.457,0
1587513964.977,20.996,24.414,30.762,21.973,-807.617,0
1587513964.981,43.457,26.855,30.273,58.105,561.035,0
1587513964.985,30.762,29.297,25.879,41.992,-976.562,0
1587513964.989,9.766,27.832,20.508,8.789,-179.199,0
1587513964.993,22.949,35.156,25.879,23.926,-1000.000,0
1587513964.997,48.828,37.109,26.367,59.570,101.074,0
1587513965.001,41.504,33.691,26.367,50.293,-892.090,0
1587513965.004,19.043,33.203,29.297,13.672,212.402,0
1587513965.008,13.672,32.715,25.391,-1.465,-1000.000,0
1587513965.012,34.180,33.203,21.973,34.668,-301.270,0
1587513965.016,35.645,29.785,21.973,43.457,-926.758,0
1587513965.020,13.184,31.250,20.996,10.742,617.676,0
1587513965.015,3.906,35.645,25.879,-8.301,-779.297,0
1587513965.019,26.855,38.574,34.668,25.391,-584.961,0
1587513965.023,45.410,33.691,27.832,56.641,833.984,0
1587513965.027,34.180,28.320,28.320,37.109,892.578,0
1587513965.031,17.578,34.180,33.691,10.254,-418.945,0
1587513965.035,30.762,37.109,27.832,27.344,-907.715,0
1587513965.039,46.875,28.320,29.297,59.082,414.062,0
1587513965.042,32.227,23.926,31.738,43.945,-931.152,0
1587513965.046,14.160,29.785,31.250,8.789,-81.543,0
1587513965.050,17.090,29.785,33.691,6.348,-1000.000,0
1587513965.054,40.527,30.762,36.133,42.480,-25.879,0
1587513965.058,39.551,33.691,38.086,46.875,-873.047,2
1587513965.076,15.625,33.203,34.180,12.695,348.145,0
1587513965.080,10.254,28.809,32.715,-3.418,-989.258,0
1587513965.084,36.621,25.391,37.598,35.156,-400.879,0
1587513965.088,45.898,22.461,37.109,52.734,-986.328,0
1587513965.092,24.414,20.996,37.109,23.438,692.871,0
1587513965.096,14.648,28.320,37.598,0.000,-692.871,0
1587513965.100,34.668,33.203,36.133,25.879,-704.590,0
1587513965.103,43.945,31.738,34.180,53.223,687.500,0
1587513965.107,28.809,32.227,34.180,32.715,969.238,0
1587513965.111,12.207,34.180,36.621,1.465,-309.082,0
1587513965.115,14.160,36.621,33.691,9.766,-962.402,0
1587513965.119,32.715,30.762,31.250,44.922,307.617,0
1587513965.115,30.762,25.879,34.180,39.062,-908.203,0
1587513965.119,9.766,26.855,38.086,4.883,47.363,0
1587513965.123,7.812,25.391,37.109,-1.465,-1000.000,0
1587513965.127,31.250,21.484,39.551,37.109,-132.324,0
1587513965.131,33.691,21.484,42.480,46.875,-887.207,0
1587513965.135,13.672,25.391,39.551,16.602,424.805,0
1587513965.139,3.418,28.809,38.574,-3.418,-923.340,0
1587513965.142,20.508,31.250,36.133,25.391,-463.867,0
1587513965.146,31.738,30.273,32.715,44.922,972.656,0
1587513965.150,20.996,26.855,32.227,19.531,788.086,0
1587513965.154,8.789,29.297,34.668,-5.371,-596.680,0
1587513965.158,23.926,33.691,37.109,19.043,-763.184,0
1587513965.157,41.992,29.297,39.551,52.734,617.188,0
1587513965.161,26.855,29.297,35.156,34.180,-984.375,0
1587513965.165,8.301,30.762,31.250,3.418,-204.590,0
1587513965.169,24.902,30.273,39.551,21.484,-1000.000,0
1587513965.173,46.875,29.785,36.621,55.176,150.391,0
1587513965.177,41.992,30.273,37.109,46.387,-888.672,0
1587513965.181,22.949,31.250,40.527,18.066,149.902,0
1587513965.184,14.160,32.227,32.715,3.906,-1000.000,0
1587513965.188,36.133,30.273,29.785,35.645,-269.531,0
1587513965.192,43.945,24.902,33.203,48.828,-928.223,0
1587513965.196,27.832,29.785,32.715,20.996,579.102,0
1587513965.200,18.555,34.180,26.855,-0.488,-808.594,0
1587513965.216,40.527,31.250,27.832,28.809,-566.406,0
1587513965.220,48.340,30.762,26.855,50.781,855.469,0
1587513965.224,29.785,31.250,24.414,26.367,855.957,0
1587513965.228,18.555,32.715,31.250,3.906,-482.422,0
1587513965.232,36.621,32.715,33.691,28.809,-861.328,0
1587513965.236,54.688,31.250,34.668,61.523,487.793,0
1587513965.240,41.992,32.715,34.180,44.922,-976.074,0
1587513965.243,20.020,29.785,31.738,10.742,-150.879,0
1587513965.247,22.949,27.344,30.762,12.695,-1000.000,0
1587513965.251,46.387,33.691,26.855,47.852,45.410,0
1587513965.255,41.016,34.180,21.484,41.016,-855.957,0
1587513965.259,20.508,33.691,25.879,8.789,275.391,0
1587513965.256,15.625,34.180,30.762,0.977,-1000.000,0
1587513965.260,28.809,26.367,25.391,28.809,-342.773,0
1587513965.264,35.156,28.809,26.855,43.945,-956.543,0
1587513965.268,23.438,35.156,32.227,23.438,641.602,0
1587513965.272,11.230,33.203,31.738,1.465,-734.863,0
1587513965.276,25.879,28.809,34.180,26.367,-641.602,0
1587513965.280,39.062,29.297,36.133,52.246,766.602,0
1587513965.283,26.367,30.762,32.715,28.809,914.551,0
1587513965.287,13.184,29.297,36.621,-1.465,-390.625,0
1587513965.291,27.832,29.297,35.645,16.113,-929.199,0
1587513965.295,45.410,31.250,31.250,50.293,368.652,0
1587513965.299,36.133,29.785,33.203,39.062,-909.668,0
1587513965.296,23.438,26.855,34.668,13.184,-1.953,0
1587513965.300,27.832,30.273,37.598,12.207,-1000.000,0
1587513965.304,43.945,29.785,33.203,42.480,-62.012,0
1587513965.308,42.969,27.344,30.273,49.805,-856.934,0
1587513965.312,24.902,27.832,31.250,17.578,430.664,0
1587513965.316,13.672,26.367,29.785,-5.859,-937.012,0
1587513965.320,36.133,31.250,33.203,28.320,-453.613,0
1587513965.323,44.434,32.715,32.227,48.340,959.473,0
1587513965.327,26.367,27.344,31.738,22.461,721.680,0
1587513965.331,15.137,28.809,37.598,0.977,-652.832,0
1587513965.335,31.250,31.738,36.621,24.414,-718.262,0
1587513965.339,49.316,32.715,39.062,59.570,671.875,0
1587513965.356,32.715,29.785,36.621,40.039,987.793,0
1587513965.360,14.160,27.344,36.133,7.812,-273.926,0
1587513965.364,22.461,23.438,39.062,19.043,-986.328,0
1587513965.368,47.852,23.438,41.016,56.152,270.508,0
1587513965.372,40.039,25.879,40.527,48.828,-870.605,0
1587513965.376,13.184,24.414,36.133,11.230,128.906,0
1587513965.380,17.578,30.273,36.621,6.836,-1000.000,0
1587513965.383,43.457,27.832,38.086,44.434,-175.781,0
1587513965.387,42.969,24.902,39.062,52.246,-875.000,0
1587513965.391,20.508,28.809,41.504,16.602,503.418,0
1587513965.395,10.742,31.250,43.945,-3.906,-874.512,0
1587513965.399,33.691,35.156,42.969,36.133,-524.902,0
1587513965.417,43.457,30.762,39.062,58.105,913.086,0
1587513965.421,24.902,25.879,41.504,30.762,832.031,0
1587513965.425,7.812,22.949,43.457,2.441,-537.598,0
1587513965.429,27.832,22.949,43.457,25.879,-812.988,0
1587513965.433,45.410,23.926,41.992,55.176,557.617,0
1587513965.437,26.855,23.926,36.621,32.715,-967.773,0
1587513965.441,9.766,26.855,39.551,3.418,-170.410,0
1587513965.444,20.508,29.297,40.527,11.230,-1000.000,0
1587513965.448,46.875,33.691,37.598,46.875,113.770,0
1587513965.452,44.922,33.203,38.574,46.387,-880.859,0
1587513965.456,25.391,29.785,41.016,18.066,201.172,0
1587513965.460,15.625,30.273,41.016,8.789,-1000.000,0
1587513965.435,33.691,26.855,38.574,40.039,-285.645,0
1587513965.439,40.527,25.879,39.062,49.316,-918.457,0
1587513965.443,22.949,28.809,37.598,20.508,587.402,0
1587513965.447,19.043,27.832,39.062,-0.488,-800.293,0
1587513965.451,35.156,29.297,39.551,26.855,-612.793,0
1587513965.455,42.480,32.715,35.645,51.758,812.500,0
1587513965.459,26.855,29.785,30.762,28.809,867.188,0
1587513965.462,11.719,28.809,27.832,0.488,-467.773,0
1587513965.466,25.879,31.738,32.227,19.531,-900.391,0
1587513965.470,46.875,26.855,36.133,52.246,421.875,0
1587513965.474,34.668,23.438,37.598,39.551,-926.758,0
1587513965.478,18.066,26.855,41.992,10.742,-59.570,0
1587513965.517,23.926,33.203,40.527,7.812,-1000.000,0
1587513965.521,45.898,35.156,38.086,45.898,-20.996,0
1587513965.525,45.410,34.668,41.504,51.270,-887.695,0
1587513965.529,24.902,34.668,44.922,19.531,338.867,0
1587513965.533,14.160,28.320,41.504,-0.977,-978.516,0
1587513965.537,30.762,22.949,38.086,29.297,-395.996,0
1587513965.541,41.504,23.438,41.504,55.176,-991.699,0
1587513965.544,25.391,27.832,48.340,31.738,693.359,0
1587513965.548,13.672,28.809,53.223,4.883,-688.965,0
1587513965.552,32.227,24.902,49.805,28.809,-679.688,0
1587513965.556,43.457,20.020,41.992,57.129,722.656,0
1587513965.560,25.879,21.973,38.574,34.668,953.125,0
1587513965.535,9.277,24.414,42.969,4.395,-332.520,0
1587513965.539,18.066,21.973,48.340,16.602,-971.680,0
1587513965.543,34.180,23.438,44.922,47.363,309.570,0
1587513965.547,29.297,28.809,40.527,43.457,-889.160,0
1587513965.551,16.113,26.367,41.992,16.602,83.008,0
1587513965.555,15.137,20.996,42.480,13.672,-1000.000,0
1587513965.559,36.621,20.020,41.016,49.805,-163.574,0
1587513965.562,38.574,23.926,42.480,54.199,-881.348,0
1587513965.566,11.230,26.855,41.016,13.184,474.609,0
1587513965.570,5.859,26.855,40.039,-9.766,-905.273,0
1587513965.574,39.062,25.879,40.527,24.902,-470.215,0
1587513965.578,61.523,29.785,42.480,41.992,966.797,0
1587513965.595,51.270,31.250,42.480,9.766,790.527,0
1587513965.599,37.598,30.273,33.203,-25.879,-583.008,0
1587513965.603,63.477,31.738,33.203,-2.930,-786.621,0
1587513965.607,79.590,28.809,39.551,31.738,581.055,0
1587513965.611,53.223,27.832,41.016,18.066,-997.070,0
1587513965.615,25.879,34.180,38.574,-2.930,-229.004,0
1587513965.619,24.902,29.297,44.434,11.719,-1000.000,0
1587513965.622,36.621,24.414,50.293,55.176,176.758,0
1587513965.626,24.902,25.879,52.246,54.199,-884.766,0
1587513965.630,1.953,23.438,56.152,19.531,177.734,0
1587513965.634,1.953,21.484,56.641,11.719,-1000.000,0
1587513965.638,25.879,20.996,55.176,46.875,-230.469,0
1587513965.635,25.391,23.926,53.711,49.805,-895.996,0
1587513965.639,11.230,30.762,55.176,20.508,544.922,0
1587513965.643,7.812,31.250,48.828,3.418,-831.055,0
1587513965.647,28.809,26.367,43.945,30.762,-564.941,0
1587513965.651,44.434,26.855,49.805,58.594,855.469,0
1587513965.655,25.391,26.855,48.828,35.645,846.191,0
1587513965.659,0.000,27.832,43.945,2.930,-504.395,0
1587513965.662,12.695,29.785,46.387,19.043,-840.332,0
1587513965.666,34.668,25.879,50.293,51.270,504.883,0
1587513965.670,20.508,23.926,54.688,37.109,-925.293,0
1587513965.674,3.418,27.344,59.570,7.324,-76.172,0
1587513965.678,9.766,28.320,59.570,8.789,-1000.000,0
1587513965.676,36.621,26.855,60.059,48.828,23.438,0
1587513965.680,33.203,28.320,60.547,47.852,-860.352,0
1587513965.684,15.625,29.785,64.453,13.184,296.875,0
1587513965.688,16.113,29.297,66.895,1.465,-1000.000,0
1587513965.692,34.668,32.715,66.406,32.227,-346.191,0
1587513965.696,41.504,32.227,72.266,50.293,-950.684,0
1587513965.700,20.996,22.949,68.848,22.949,653.809,0
1587513965.703,7.324,24.414,61.035,-4.395,-737.305,0
1587513965.707,28.809,27.344,64.941,21.973,-643.066,0
1587513965.711,41.504,24.414,70.801,43.945,774.902,0
1587513965.715,26.367,29.297,74.707,24.414,920.898,0
1587513965.719,8.789,32.227,79.102,-4.395,-396.484,0
1587513965.717,15.137,25.879,77.148,4.395,-918.457,0
1587513965.721,31.250,27.832,71.777,38.574,390.625,0
1587513965.725,26.367,32.715,71.289,34.180,-917.480,0
1587513965.729,11.230,26.367,81.055,5.859,-4.395,0
1587513965.733,18.555,25.879,87.402,8.789,-1000.000,0
1587513965.737,45.898,24.902,85.449,48.340,-83.984,0
1587513965.741,50.293,23.926,86.914,55.176,-869.629,0
1587513965.744,37.109,33.203,90.332,27.344,377.441,0
1587513965.748,23.926,32.715,90.332,4.883,-979.004,0
1587513965.752,40.527,27.344,91.309,38.086,-437.012,0
1587513965.756,48.828,26.855,94.727,58.105,980.469,0
1587513965.760,31.738,26.367,101.074,32.227,729.980,0
1587513965.776,15.137,31.250,95.703,5.371,-647.949,0
1587513965.780,27.344,26.855,90.820,25.879,-741.699,0
1587513965.784,42.480,20.996,96.191,55.664,648.438,0
1587513965.788,28.809,21.484,98.145,34.180,963.379,0
1587513965.792,11.230,24.902,93.750,2.930,-296.875,0
1587513965.796,21.973,26.367,91.309,10.742,-1000.000,0
1587513965.800,48.340,26.855,94.727,46.387,214.355,0
1587513965.803,41.504,26.367,94.238,37.109,-888.184,0
1587513965.807,23.926,28.809,98.633,3.906,115.723,0
1587513965.811,27.344,33.203,101.562,3.418,-1000.000,0
1587513965.815,46.875,34.668,103.027,34.180,-200.195,0
1587513965.819,47.363,33.203,102.539,41.992,-891.602,0
1587513965.816,31.250,27.344,94.238,20.996,511.719,0
1587513965.820,30.762,25.879,94.238,10.254,-871.582,0
1587513965.824,51.758,33.203,94.727,39.551,-515.625,0
1587513965.828,67.383,38.574,104.980,66.895,919.922,0
1587513965.832,56.152,37.109,109.375,46.387,827.148,0
1587513965.836,40.527,36.133,100.098,15.625,-544.922,0
1587513965.840,51.270,33.203,98.145,31.250,-801.270,0
1587513965.843,61.035,30.762,96.191,56.641,574.707,0
1587513965.847,42.480,30.762,93.262,33.203,-961.426,0
1587513965.851,22.461,31.738,92.285,-2.441,-171.875,0
1587513965.855,29.785,29.297,90.820,1.953,-1000.000,0
1587513965.859,55.664,28.809,95.703,44.922,121.094,0
1587513965.858,53.711,33.691,94.727,43.945,-847.656,0
1587513965.862,36.133,36.133,91.797,12.695,263.184,0
1587513965.866,34.180,30.762,94.238,9.277,-1000.000,0
1587513965.870,55.176,31.738,95.215,44.922,-296.387,0
1587513965.874,51.758,27.832,92.773,51.758,-934.082,0
1587513965.878,25.391,23.438,87.891,17.090,574.219,0
1587513965.882,12.695,30.273,86.914,-4.883,-794.922,0
1587513965.885,30.273,25.879,86.914,22.461,-629.883,0
1587513965.889,41.016,21.484,87.891,48.828,780.273,0
1587513965.893,20.508,26.367,99.609,25.879,905.273,0
1587513965.897,6.348,27.344,108.887,-1.953,-433.105,0
1587513965.901,19.043,23.926,105.957,18.066,-882.812,0
1587513965.915,37.109,25.391,104.980,52.734,443.848,0
1587513965.919,26.855,29.785,111.328,40.527,-898.926,0
1587513965.923,13.672,33.691,121.582,16.602,-11.719,0
1587513965.927,17.578,30.762,121.582,17.578,-1000.000,0
1587513965.931,31.250,20.508,112.305,46.387,11.230,0
1587513965.935,28.809,22.461,102.539,48.340,-854.004,0
1587513965.939,5.859,29.297,98.633,9.766,317.383,0
1587513965.942,-8.789,26.367,101.562,-14.160,-994.629,0
1587513965.946,19.043,27.344,107.422,29.297,-379.883,0
1587513965.950,37.109,35.645,112.305,50.781,-970.703,0
1587513965.954,20.996,31.250,112.305,23.926,708.984,0
1587513965.958,9.766,26.367,112.793,5.859,-691.406,0
1587513965.976,30.762,26.367,110.840,34.668,-690.918,0
1587513965.980,48.340,26.367,105.957,64.941,714.355,0
1587513965.984,34.668,30.762,109.863,46.875,957.520,0
1587513965.988,9.277,33.691,111.816,9.766,-333.008,0
1587513965.992,9.766,29.297,110.840,18.555,-967.773,0
1587513965.996,27.344,26.367,113.281,51.758,309.082,0
1587513966.000,26.367,28.320,118.164,46.387,-882.812,0
1587513966.003,4.883,26.367,111.816,9.766,81.055,0
1587513966.007,5.371,27.832,103.516,3.906,-1000.000,0
1587513966.011,39.551,30.273,109.863,53.223,-130.371,0
1587513966.015,40.527,33.203,113.281,62.988,-860.840,0
1587513966.019,12.207,29.297,105.957,29.297,447.754,0
1587513965.997,7.324,25.879,95.215,6.836,-917.969,0
1587513966.001,31.738,25.879,89.844,36.621,-462.402,0
1587513966.005,37.109,30.762,93.262,53.711,959.473,0
1587513966.009,17.090,34.668,93.262,21.973,771.973,0
1587513966.013,10.254,26.855,88.379,0.488,-601.562,0
1587513966.017,31.250,23.438,89.355,30.762,-754.395,0
1587513966.021,44.922,20.508,89.844,60.547,626.465,0
1587513966.024,34.668,25.879,83.984,43.945,-983.887,0
1587513966.028,21.484,31.738,83.496,17.090,-206.543,0
1587513966.032,19.043,25.879,74.707,18.555,-1000.000,0
1587513966.036,34.180,26.855,66.406,46.387,182.129,0
1587513966.040,37.109,31.738,71.777,46.387,-838.867,0
1587513966.056,21.973,32.227,71.777,15.137,191.406,0
1587513966.060,20.508,32.227,69.336,7.812,-1000.000,0
1587513966.064,39.062,28.320,66.895,41.992,-220.703,0
1587513966.068,45.410,27.344,69.824,57.617,-877.441,0
1587513966.072,29.785,29.297,71.289,36.133,591.309,0
1587513966.076,16.602,29.297,64.453,13.672,-824.707,0
1587513966.080,29.297,26.367,66.895,38.086,-562.988,0
1587513966.083,36.621,20.996,76.660,58.105,880.371,0
1587513966.087,20.996,20.996,81.543,33.203,858.398,0
1587513966.091,-1.465,28.809,75.195,0.000,-496.094,0
1587513966.095,18.066,35.645,76.172,19.043,-851.562,0
1587513966.099,42.480,32.715,81.543,51.270,500.000,0
1587513966.096,32.227,30.273,78.125,38.574,-944.824,0
1587513966.100,11.719,32.227,75.195,4.395,-113.770,0
1587513966.104,13.184,30.273,76.172,3.418,-1000.000,0
1587513966.108,41.504,27.344,79.102,49.805,53.223,0
1587513966.112,41.016,25.879,81.055,54.199,-857.910,0
1587513966.116,14.648,25.879,78.125,15.625,259.277,0
1587513966.120,3.906,25.391,75.195,-1.465,-1000.000,0
1587513966.123,24.414,22.461,76.172,36.621,-345.215,0
1587513966.127,27.832,24.902,68.848,46.875,-958.008,0
1587513966.131,9.766,28.809,57.129,14.648,617.188,0
1587513966.135,6.348,26.367,61.035,-3.418,-766.113,1
1587513966.139,31.738,27.832,68.359,28.320,-628.906,0
1587513966.156,41.016,29.297,64.453,51.758,781.250,0
1587513966.160,20.996,26.855,58.594,28.320,923.340,0
1587513966.164,3.906,25.391,55.664,-4.883,-391.602,0
1587513966.168,13.672,27.832,53.223,6.836,-936.035,0
1587513966.172,39.062,30.273,50.781,45.898,373.535,0
1587513966.176,37.109,27.832,55.176,43.945,-908.691,0
1587513966.180,17.090,23.926,56.641,13.672,-3.906,0
1587513966.183,21.484,30.762,56.641,11.719,-1000.000,0
1587513966.187,44.922,29.785,62.500,51.270,-76.172,0
1587513966.191,42.480,25.391,67.871,54.199,-859.375,0
1587513966.195,22.461,30.762,62.988,20.508,414.062,0
1587513966.199,9.766,26.367,62.012,1.465,-949.219,0
1587513966.196,30.762,24.414,64.453,34.668,-452.148,0
1587513966.200,46.875,28.320,56.641,57.129,975.586,0
1587513966.204,33.203,28.320,55.664,31.250,763.672,0
1587513966.208,16.113,24.414,51.758,6.348,-620.605,0
1587513966.212,35.156,24.414,47.852,34.180,-730.469,0
1587513966.216,49.805,29.297,54.688,57.129,666.016,0
1587513966.220,30.762,29.297,55.664,32.715,971.680,0
1587513966.223,4.395,28.320,46.875,-6.348,-298.340,0
1587513966.227,8.301,31.250,44.434,-0.488,-1000.000,0
1587513966.231,33.203,27.344,49.805,44.434,250.977,0
1587513966.235,20.508,24.414,45.898,34.180,-893.555,0
1587513966.239,-4.395,27.832,44.434,-1.465,86.426,0
1587513966.235,-0.488,26.855,44.434,-3.906,-1000.000,0
1587513966.239,27.832,25.879,39.551,34.668,-189.453,0
1587513966.243,37.109,34.668,41.016,48.828,-881.348,0
1587513966.247,22.461,32.715,43.945,22.949,500.488,0
1587513966.251,14.160,25.879,41.504,5.859,-886.719,0
1587513966.255,36.621,28.809,38.574,37.109,-537.598,0
1587513966.259,43.457,27.344,35.645,54.199,889.160,0
1587513966.262,22.949,27.344,30.273,25.879,819.336,0
1587513966.266,12.207,27.832,28.809,-0.488,-543.945,0
1587513966.270,21.973,23.926,31.250,17.090,-817.383,0
1587513966.274,35.156,23.926,34.668,49.316,548.340,0
1587513966.278,31.250,27.832,34.668,38.574,-967.773,0
1587513966.296,18.066,34.180,36.621,8.789,-180.664,0
1587513966.300,25.391,33.203,33.203,18.066,-1000.000,0
1587513966.304,48.828,31.250,23.438,55.664,129.883,0
1587513966.308,45.410,29.785,20.508,47.363,-851.074,0
1587513966.312,24.902,31.250,23.438,14.648,230.957,0
1587513966.316,18.555,33.691,31.250,6.348,-1000.000,0
1587513966.320,38.574,30.273,29.785,42.480,-306.152,0
1587513966.323,40.039,26.855,22.949,52.734,-954.590,0
1587513966.327,13.672,25.391,22.949,15.137,562.500,0
1587513966.331,6.348,24.902,23.926,-3.418,-796.387,0
1587513966.335,28.320,24.414,21.973,29.785,-609.375,0
1587513966.339,43.457,25.879,19.531,57.129,805.664,0
1587513966.335,37.109,30.273,22.461,41.504,888.184,0
1587513966.339,21.484,33.203,19.043,10.742,-442.871,0
1587513966.343,31.250,33.691,16.113,23.438,-884.277,0
1587513966.347,47.363,32.715,12.695,54.688,438.965,0
1587513966.351,31.738,28.320,13.184,38.086,-928.711,0
1587513966.355,8.789,27.344,20.020,5.371,-61.523,0
1587513966.359,8.301,27.832,24.902,0.977,-1000.000,0
1587513966.362,27.344,28.320,29.297,38.086,-12.695,0
1587513966.366,25.879,25.391,29.297,41.016,-872.559,0
1587513966.370,9.277,17.090,28.809,8.301,330.078,0
1587513966.374,6.348,20.996,23.926,-3.906,-998.535,0
1587513966.378,28.809,28.809,21.484,28.320,-407.715,0
1587513966.376,37.598,23.438,21.484,44.922,-993.652,0
1587513966.380,22.949,23.926,18.555,17.578,711.426,0
1587513966.384,12.695,31.250,19.043,-9.277,-690.918,0
1587513966.388,30.762,36.133,19.531,14.648,-666.992,0
1587513966.392,39.551,34.668,20.996,41.504,747.070,0
1587513966.396,23.438,32.227,26.367,23.926,952.637,0
1587513966.400,4.883,25.391,21.973,-5.859,-341.797,0
1587513966.403,22.461,13.672,26.367,12.207,-964.355,0
1587513966.407,46.875,11.230,30.762,53.711,316.406,0
1587513966.411,39.551,17.090,31.250,48.828,-893.066,0
1587513966.415,25.879,27.832,36.133,22.949,60.059,0
1587513966.419,28.320,34.668,38.086,19.043,-1000.000,0
1587513966.417,50.781,31.250,35.645,47.363,-121.094,0
1587513966.421,54.688,29.297,33.203,56.641,-872.559,0
1587513966.425,31.738,28.809,35.156,24.902,440.918,0
1587513966.429,16.602,29.785,38.086,-2.930,-921.875,0
1587513966.433,37.598,32.227,39.062,31.738,-468.750,0
1587513966.437,42.480,26.367,35.645,48.340,958.496,0
1587513966.441,23.926,22.949,32.715,20.996,770.996,0
1587513966.444,16.113,21.973,38.574,3.906,-605.957,0
1587513966.448,34.668,18.555,47.363,29.785,-753.418,0
1587513966.452,45.898,20.508,48.340,57.617,623.047,0
1587513966.456,26.855,21.973,43.457,34.668,-978.027,0
1587513966.460,11.719,27.832,43.457,4.395,-207.031,0
1587513966.478,18.555,34.180,47.363,10.254,-1000.000,0
1587513966.482,35.645,31.250,48.828,48.828,182.617,0
1587513966.486,32.715,27.344,47.363,49.316,-872.559,0
1587513966.490,17.578,26.367,44.434,12.695,185.059,0
1587513966.494,13.184,21.484,41.504,-1.953,-1000.000,0
1587513966.498,30.762,23.438,39.062,31.250,-264.160,0
1587513966.502,39.551,27.344,38.574,46.875,-911.621,0
1587513966.505,20.020,25.391,32.715,16.113,565.918,0
1587513966.509,13.672,35.645,28.320,-1.465,-836.426,0
1587513966.513,43.457,40.527,28.320,35.156,-569.336,0
1587513966.517,49.316,26.855,26.367,55.176,853.027,0
1587513966.521,30.762,24.414,30.273,34.180,860.352,0
1587513966.515,18.066,23.438,33.203,9.766,-490.723,0
1587513966.519,31.250,21.973,31.738,25.879,-844.238,0
1587513966.523,47.363,22.461,29.297,57.617,504.395,0
1587513966.527,32.227,23.438,34.180,41.504,-960.449,0
1587513966.531,19.531,28.320,37.109,10.742,-126.465,0
1587513966.535,23.926,30.273,32.227,11.719,-1000.000,0
1587513966.539,43.945,28.320,35.156,45.898,56.152,0
1587513966.542,39.551,30.273,35.156,42.480,-863.770,0
1587513966.546,14.160,29.785,27.832,3.418,250.488,0
1587513966.550,11.719,26.855,35.645,-6.348,-1000.000,0
1587513966.554,35.156,27.832,40.039,31.250,-350.586,0
1587513966.558,41.016,27.344,35.156,45.410,-961.914,0
1587513966.576,22.461,24.902,38.574,18.555,646.973,0
1587513966.580,16.602,23.926,49.805,3.418,-757.812,0
1587513966.584,41.504,28.809,49.316,38.574,-639.160,0
1587513966.588,51.758,25.879,38.574,64.453,787.109,0
1587513966.592,28.320,20.508,35.156,36.621,919.922,0
1587513966.596,10.742,23.438,39.551,4.395,-391.602,0
1587513966.600,25.879,27.344,37.598,17.090,-948.242,0
1587513966.603,41.504,28.809,34.180,46.875,340.820,0
1587513966.607,37.598,28.809,38.574,40.527,-906.250,0
1587513966.611,17.090,25.879,33.691,7.324,1.953,0
1587513966.615,20.020,27.832,36.621,10.254,-1000.000,0
1587513966.619,48.340,32.715,43.457,53.711,-75.684,0
1587513966.615,42.969,28.320,45.410,52.246,-852.539,0
1587513966.619,24.902,22.949,48.340,25.391,421.387,0
1587513966.623,18.555,22.949,47.852,15.137,-949.219,0
1587513966.627,41.504,28.809,45.410,45.898,-451.172,0
1587513966.631,41.504,26.367,42.969,56.641,976.074,0
1587513966.635,12.207,20.996,40.039,23.926,722.656,0
1587513966.639,-2.930,23.926,42.969,-5.859,-666.992,0
1587513966.642,20.996,26.855,50.293,24.902,-711.914,0
1587513966.646,37.598,21.973,48.340,54.199,682.129,0
1587513966.650,24.414,24.902,47.852,31.738,988.770,0
1587513966.654,17.578,28.320,49.316,6.836,-284.180,0
1587513966.658,30.273,25.391,49.316,20.996,-994.141,0
1587513966.656,44.434,30.273,47.852,53.711,262.695,0
1587513966.660,37.109,29.297,45.898,44.434,-883.789,0
1587513966.664,12.695,26.367,42.480,6.836,123.047,0
1587513966.668,10.254,27.344,47.363,0.000,-1000.000,0
1587513966.672,34.668,23.926,50.293,38.086,-197.266,0
1587513966.676,32.227,25.391,41.016,41.504,-890.137,0
1587513966.680,18.066,26.855,42.969,12.695,498.535,0
1587513966.683,16.602,26.855,49.805,-0.488,-885.254,0
1587513966.687,34.668,24.902,48.340,27.832,-527.344,0
1587513966.691,46.387,22.461,55.664,50.293,909.180,0
1587513966.695,31.738,26.855,66.406,28.809,830.078,0
1587513966.699,9.766,23.438,62.012,0.488,-538.086,0
1587513966.715,23.926,20.508,53.711,20.020,-806.641,0
1587513966.719,41.992,24.414,49.805,49.316,550.293,0
1587513966.723,28.320,24.902,50.293,37.109,-960.449,0
1587513966.727,9.277,28.809,46.875,7.324,-149.414,0
1587513966.731,18.555,33.691,51.758,13.184,-1000.000,0
1587513966.735,41.504,26.855,58.105,54.688,100.098,0
1587513966.739,36.133,21.973,57.617,51.270,-868.164,0
1587513966.742,20.508,26.855,57.129,20.996,229.980,0
1587513966.746,18.066,24.414,48.340,13.184,-1000.000,0
1587513966.750,41.992,18.066,46.387,45.898,-286.621,0
1587513966.754,41.992,23.438,45.410,47.363,-913.574,0
1587513966.758,16.113,30.762,36.621,11.719,610.840,0
1587513966.756,10.742,26.855,39.062,-1.953,-788.086,0
1587513966.760,31.738,26.367,43.945,30.762,-604.492,0
1587513966.764,44.922,29.785,49.805,53.711,822.754,0
1587513966.768,30.762,27.832,45.410,30.273,881.836,0
1587513966.772,6.348,22.949,32.715,-0.488,-450.684,0
1587513966.776,19.043,25.391,33.691,18.555,-903.809,0
1587513966.780,42.969,27.344,38.086,53.711,418.457,0
1587513966.783,29.297,27.344,40.039,41.992,-931.641,0
1587513966.787,11.230,25.391,43.945,15.137,-62.500,0
1587513966.791,15.137,26.367,42.969,11.719,-1000.000,0
1587513966.795,38.086,30.273,39.062,47.363,-28.809,0
1587513966.799,31.738,30.273,39.551,47.852,-868.164,0
1587513966.796,9.766,24.902,41.504,7.324,349.121,0
1587513966.800,15.137,22.949,34.180,-9.277,-989.746,0
1587513966.804,42.969,23.438,32.227,15.625,-393.555,0
1587513966.808,57.617,23.926,33.691,25.879,-973.633,0
1587513966.812,50.781,26.855,29.297,-0.488,681.641,0
1587513966.816,48.828,30.762,33.203,-21.484,-710.938,0
1587513966.820,71.777,33.203,36.621,7.324,-685.547,0
1587513966.823,83.008,35.645,35.645,41.016,726.562,0
1587513966.827,60.059,39.551,38.574,28.809,908.203,0
1587513966.831,22.461,32.715,37.598,-0.977,-381.348,0
1587513966.835,14.160,23.926,36.133,10.254,-959.961,0
1587513966.839,31.250,27.832,39.551,50.293,309.570,0
1587513966.856,22.949,25.391,44.922,48.340,-889.648,0
1587513966.860,2.441,19.531,49.316,16.602,57.617,0
1587513966.864,-0.977,20.508,48.340,8.789,-1000.000,0
1587513966.868,22.461,23.926,46.387,44.434,-148.926,0
1587513966.872,29.297,24.902,42.969,50.293,-877.441,0
1587513966.876,7.324,22.461,40.039,17.090,458.008,0
1587513966.880,-4.883,23.438,36.133,-4.395,-923.828,0
1587513966.883,19.531,22.949,41.992,31.250,-471.191,0
1587513966.887,33.691,24.902,56.152,57.129,960.938,0
1587513966.891,11.719,28.320,49.805,21.973,787.598,0
1587513966.895,-6.348,22.461,41.992,-9.277,-593.262,0
1587513966.899,15.625,19.531,41.992,18.555,-761.230,0
1587513966.896,36.621,25.879,41.992,51.270,620.117,0
1587513966.900,26.367,27.344,42.969,37.109,-978.027,0
1587513966.904,2.930,27.344,43.457,3.418,-204.590,0
1587513966.908,5.859,21.484,50.781,8.301,-1000.000,0
1587513966.912,32.227,17.578,55.176,46.875,176.270,0
1587513966.916,29.297,23.438,49.805,41.992,-902.832,0
1587513966.920,8.301,25.391,47.852,8.789,140.625,0
1587513966.923,1.465,27.344,50.781,-2.930,-1000.000,0
1587513966.927,20.508,27.832,53.223,26.855,-259.766,0
1587513966.931,25.879,28.320,50.293,36.621,-920.410,0
1587513966.935,18.555,30.762,55.664,16.602,532.227,0
1587513966.939,13.184,28.320,63.477,2.441,-848.633,0
1587513966.937,30.762,24.902,61.523,29.297,-569.336,0
1587513966.941,40.527,19.531,56.152,46.875,854.980,0
1587513966.945,21.973,22.949,56.152,20.996,842.285,0
1587513966.949,0.977,28.809,51.758,-9.277,-507.812,0
1587513966.953,20.020,28.320,59.570,12.207,-834.473,0
1587513966.957,45.410,25.391,67.871,55.664,508.789,0
1587513966.961,33.203,26.367,59.570,41.016,-941.406,0
1587513966.964,12.695,29.785,57.129,3.906,-108.398,0
1587513966.968,13.184,24.414,62.500,2.930,-1000.000,0
1587513966.972,36.133,23.438,72.754,44.922,48.340,0
1587513966.976,38.086,27.832,78.613,51.270,-872.559,0
1587513966.980,20.996,32.227,82.031,16.602,262.207,0
1587513966.998,14.648,31.250,86.914,0.488,-1000.000,0
1587513967.002,37.598,27.344,92.285,33.691,-366.699,0
1587513967.006,43.457,26.367,96.191,48.828,-957.520,0
1587513967.010,25.391,29.785,98.145,20.996,645.996,0
1587513967.014,18.066,32.227,98.145,-0.977,-758.789,0
1587513967.018,33.691,29.785,93.262,25.879,-651.855,0
1587513967.022,46.875,30.762,94.727,50.293,753.418,0
1587513967.025,33.691,37.598,99.609,27.344,904.785,0
1587513967.029,15.625,41.992,99.609,-1.465,-391.602,0
1587513967.033,25.391,37.598,96.191,15.625,-937.012,0
1587513967.037,45.898,29.785,97.168,48.828,359.375,0
1587513967.041,38.574,34.180,96.191,37.598,-915.527,0
1587513967.035,18.555,39.062,95.215,4.395,-22.949,0
1587513967.039,21.973,32.227,93.262,3.418,-1000.000,0
1587513967.043,50.781,29.297,91.309,47.363,-45.898,0
1587513967.047,51.270,31.250,89.355,55.176,-850.098,0
1587513967.051,28.320,28.809,86.914,20.996,392.578,0
1587513967.055,24.902,30.762,90.332,7.812,-962.891,0
1587513967.059,44.434,31.250,90.332,39.551,-437.988,0
1587513967.062,50.781,28.320,86.914,52.246,982.910,0
1587513967.066,34.668,29.785,95.215,25.391,753.906,0
1587513967.070,17.578,33.203,92.285,-0.488,-629.395,0
1587513967.074,29.785,32.715,88.379,19.043,-730.957,0
1587513967.078,48.340,25.879,90.332,45.898,659.668,0
1587513967.076,40.039,29.297,87.891,31.250,992.188,0
1587513967.080,22.949,36.133,85.938,5.371,-266.602,0
1587513967.084,27.832,36.621,78.613,11.719,-994.629,0
1587513967.088,51.270,29.297,77.637,44.434,251.465,0
1587513967.092,49.805,28.809,82.031,41.504,-871.094,0
1587513967.096,31.738,27.832,83.984,13.672,122.070,0
1587513967.100,25.879,16.602,79.102,4.395,-1000.000,0
1587513967.103,53.223,18.066,81.543,42.969,-193.848,0
1587513967.107,57.617,28.320,82.031,53.223,-890.625,0
1587513967.111,26.855,31.250,79.102,13.672,501.953,0
1587513967.115,15.625,32.227,81.055,-6.348,-875.000,0
1587513967.119,37.598,30.273,85.449,29.785,-525.391,0
1587513967.136,50.293,32.715,90.332,56.641,900.879,0
1587513967.140,32.227,34.180,90.820,33.203,816.895,0
1587513967.144,11.230,34.180,84.961,3.418,-539.551,0
1587513967.148,23.926,33.203,86.426,26.367,-813.477,0
1587513967.152,44.922,24.414,91.309,66.406,550.293,2
1587513967.156,30.762,23.438,88.867,50.293,-976.074,0
1587513967.160,6.348,23.926,85.938,13.672,-187.500,0
1587513967.163,11.230,25.879,90.332,20.996,-1000.000,0
1587513967.167,28.809,27.832,87.891,54.199,104.980,0
1587513967.171,21.484,22.461,82.031,46.875,-861.816,0
1587513967.175,3.418,24.414,80.078,18.066,244.629,0
1587513967.179,5.371,32.715,83.008,9.766,-1000.000,0
1587513967.177,35.645,34.668,84.473,48.340,-292.480,0
1587513967.181,41.016,33.203,78.613,60.059,-919.434,0
1587513967.185,20.508,29.785,77.637,24.902,608.887,0
1587513967.189,11.230,32.715,77.637,3.906,-778.809,0
1587513967.193,29.297,32.227,70.801,33.691,-618.164,0
1587513967.197,34.180,21.973,64.941,50.293,797.852,0
1587513967.201,15.625,21.973,65.918,27.832,918.945,0
1587513967.204,10.742,29.297,71.777,9.766,-418.457,0
1587513967.208,27.832,32.227,75.195,31.250,-889.160,0
1587513967.212,38.574,26.855,62.988,56.152,443.848,0
1587513967.216,24.414,26.855,58.594,39.062,-939.453,0
1587513967.220,7.324,31.738,57.617,11.230,-71.289,0
1587513967.215,16.113,35.156,53.223,16.113,-1000.000,0
1587513967.219,40.527,31.738,53.711,51.758,9.277,0
1587513967.223,34.668,27.344,52.246,47.852,-855.469,0
1587513967.227,17.090,27.344,49.805,17.090,357.422,0
1587513967.231,10.742,26.855,45.898,0.488,-976.562,0
1587513967.235,29.785,26.367,47.363,29.785,-405.762,0
1587513967.239,41.016,27.832,55.664,53.223,-987.305,0
1587513967.242,21.484,27.344,53.711,30.273,695.312,0
1587513967.246,3.906,25.391,49.316,0.000,-702.637,0
1587513967.250,21.484,27.344,48.340,23.438,-698.730,0
1587513967.254,37.598,30.273,41.992,56.641,693.359,0
1587513967.258,22.461,25.879,38.086,39.062,961.914,0
1587513967.276,6.836,22.949,37.109,7.324,-320.312,0
1587513967.280,22.949,23.438,42.480,24.902,-962.891,0
1587513967.284,45.410,18.555,45.898,60.059,311.035,0
1587513967.288,40.527,27.344,41.992,48.828,-880.859,0
1587513967.292,26.367,31.738,39.551,16.113,90.820,0
1587513967.296,28.809,29.785,38.574,11.719,-1000.000,0
1587513967.300,45.410,30.762,32.715,44.922,-148.926,0
1587513967.303,44.434,28.809,29.785,50.781,-881.348,0
1587513967.307,21.484,25.391,29.297,19.531,456.543,0
1587513967.311,10.742,20.020,32.227,2.441,-904.297,0
1587513967.315,30.762,19.531,32.715,35.645,-482.422,0
1587513967.319,39.062,20.996,36.133,57.129,940.430,0
1587513967.316,20.020,24.414,38.574,30.273,798.340,0
1587513967.320,5.859,28.320,35.156,2.441,-580.078,0
1587513967.324,23.926,23.926,35.156,23.926,-762.207,0
1587513967.328,43.945,21.484,36.133,55.176,618.164,0
1587513967.332,34.668,26.855,34.668,41.016,-979.492,0
1587513967.336,19.043,27.344,30.762,11.230,-202.148,0
1587513967.340,25.391,25.391,28.809,15.625,-1000.000,0
1587513967.343,44.922,25.391,25.391,49.805,179.199,0
1587513967.347,40.527,26.855,26.855,49.805,-890.137,0
1587513967.351,25.391,30.762,29.297,18.066,110.840,0
1587513967.355,19.531,25.879,27.344,2.930,-1000.000,0
1587513967.359,33.691,22.461,28.320,38.574,-221.680,0
1587513967.356,40.527,26.367,30.273,54.688,-892.578,0
1587513967.360,20.020,18.555,26.855,24.902,558.594,0
1587513967.364,5.371,17.578,27.832,1.465,-833.496,0
1587513967.368,24.414,20.508,32.227,29.297,-561.035,0
1587513967.372,29.785,23.438,29.785,48.828,875.977,0
1587513967.376,4.395,24.414,26.367,20.020,862.793,0
1587513967.380,-9.766,23.926,27.344,-8.301,-482.910,0
1587513967.383,7.324,22.461,23.438,10.742,-856.445,0
1587513967.387,30.762,23.438,22.461,42.969,475.098,0
1587513967.391,24.902,26.855,27.832,29.297,-922.363,0
1587513967.395,13.184,32.227,27.832,2.441,-81.543,0
1587513967.399,20.508,33.203,26.855,10.254,-1000.000,0
1587513967.415,40.039,29.297,22.949,49.805,63.965,0
1587513967.419,38.574,26.855,22.461,51.758,-848.633,0
1587513967.423,19.043,20.996,25.879,21.973,322.266,0
1587513967.427,11.719,25.391,26.367,9.277,-1000.000,0
1587513967.431,33.691,30.273,31.250,40.527,-345.703,0
1587513967.435,39.551,24.902,36.133,52.246,-950.684,0
1587513967.439,21.484,27.832,34.668,24.414,646.973,0
1587513967.442,10.254,31.738,35.645,3.418,-731.445,0
1587513967.446,30.273,25.879,38.574,28.320,-644.531,0
1587513967.450,48.340,23.926,39.062,54.199,770.020,0
1587513967.454,34.180,27.832,42.480,34.668,911.621,0
1587513967.458,14.648,33.691,43.457,4.395,-402.344,0
1587513967.457,20.508,34.180,38.574,13.672,-919.434,0
1587513967.461,36.133,28.320,37.598,46.387,381.348,0
1587513967.465,33.691,30.762,48.340,43.945,-893.555,0
1587513967.469,15.137,29.297,45.410,13.672,22.949,0
1587513967.473,14.160,23.926,35.156,7.324,-1000.000,0
1587513967.477,31.250,14.160,31.738,38.086,-99.609,0
1587513967.481,29.785,13.184,31.738,40.039,-875.488,0
1587513967.484,21.484,18.066,41.016,18.066,402.344,0
1587513967.488,14.160,19.043,38.574,3.418,-951.172,0
1587513967.492,35.156,20.508,37.598,38.086,-460.938,0
1587513967.496,47.363,21.973,42.969,60.059,962.891,0
1587513967.500,29.297,31.738,39.551,27.832,742.676,0
1587513967.496,8.301,27.344,31.738,-8.301,-635.254,0
1587513967.500,27.832,21.973,28.320,16.602,-729.492,0
1587513967.504,54.199,27.832,35.645,58.594,654.297,0
1587513967.508,36.621,28.320,36.621,41.504,969.238,0
1587513967.512,16.113,27.832,35.156,5.371,-283.691,0
1587513967.516,26.367,25.391,37.598,13.672,-1000.000,0
1587513967.520,48.340,27.344,40.039,53.711,248.535,0
1587513967.523,44.434,32.227,39.062,46.875,-911.133,0
1587513967.527,20.020,27.832,37.109,8.789,67.383,0
1587513967.531,14.160,23.926,34.180,2.441,-1000.000,0
1587513967.535,41.504,22.949,30.762,43.457,-197.754,0
1587513967.539,49.316,27.344,33.203,56.152,-883.301,0
1587513967.556,23.926,34.180,30.273,24.414,501.953,0
1587513967.560,15.625,33.203,27.344,5.859,-892.578,0
1587513967.564,40.527,29.785,32.227,40.039,-527.832,0
1587513967.568,46.387,31.738,30.273,57.617,906.738,0
1587513967.572,26.855,29.297,28.809,29.785,819.336,0
1587513967.576,5.371,25.879,31.250,-2.930,-544.922,0
1587513967.580,15.625,27.832,37.598,10.742,-810.059,0
1587513967.583,30.273,28.809,36.621,38.086,548.828,0
1587513967.587,8.301,27.832,22.461,16.113,-968.262,0
1587513967.591,-14.160,30.762,18.066,-17.090,-160.156,0
1587513967.595,-11.230,34.668,16.602,-16.113,-1000.000,0
1587513967.599,12.207,34.180,20.508,20.020,119.141,0
1587513967.596,8.301,40.527,24.902,16.113,-846.680,0
1587513967.600,-17.578,40.039,25.391,-21.484,254.395,0
1587513967.604,-22.461,35.645,28.809,-37.598,-1000.000,0
1587513967.608,-1.465,38.086,22.949,-7.324,-299.805,0
1587513967.612,-3.906,41.504,20.996,0.977,-931.152,0
1587513967.616,-33.691,47.852,23.438,-38.086,613.281,0
1587513967.620,-55.176,51.270,19.531,-71.289,-778.320,0
1587513967.623,-40.039,48.340,18.555,-49.805,-614.746,0
1587513967.627,-32.227,52.734,9.277,-25.879,803.223,0
1587513967.631,-48.828,58.105,1.465,-49.805,887.207,0
1587513967.635,-62.012,50.293,6.348,-79.590,-432.129,0
1587513967.639,-47.852,46.875,7.324,-57.129,-895.020,0
1587513967.637,-28.320,48.828,4.883,-20.508,432.129,0
1587513967.641,-37.598,49.316,2.441,-32.227,-938.965,0
1587513967.645,-52.734,49.805,5.371,-63.477,-83.984,0
1587513967.649,-50.293,55.664,6.836,-66.406,-1000.000,0
1587513967.653,-33.691,51.758,6.348,-35.645,1.953,0
1587513967.657,-39.062,46.875,5.371,-37.109,-855.957,0
1587513967.661,-71.777,49.316,-5.371,-78.125,352.539,0
1587513967.664,-91.309,51.270,-11.719,-102.051,-983.887,0
1587513967.668,-77.637,53.223,-11.719,-75.684,-407.227,0
1587513967.672,-80.566,56.641,-6.836,-67.871,-993.164,0
1587513967.676,-106.445,59.082,-3.418,-102.051,714.844,0
1587513967.680,-117.188,64.453,0.000,-127.930,-679.199,0
1587513967.697,-99.121,64.453,3.418,-103.516,-690.430,0
1587513967.701,-83.496,62.012,5.859,-73.730,710.449,0
1587513967.705,-98.633,60.059,10.254,-94.727,957.031,0
1587513967.709,-117.188,57.617,10.742,-125.488,-324.707,0
1587513967.713,-103.516,55.664,6.836,-109.375,-967.285,0
1587513967.717,-81.055,49.316,0.488,-76.660,298.828,0
1587513967.721,-83.496,49.805,2.441,-83.496,-892.090,0
1587513967.724,-101.562,49.805,6.348,-116.211,94.727,0
1587513967.728,-103.516,48.340,4.883,-118.164,-1000.000,0
1587513967.732,-77.148,47.852,2.930,-69.824,-146.973,0
1587513967.736,-68.848,43.945,-1.465,-54.199,-874.023,0
1587513967.740,-75.684,45.898,-1.465,-77.637,460.449,0
1587513967.735,-75.195,47.363,2.441,-85.449,-912.109,0
1587513967.739,-47.852,40.527,-1.465,-46.387,-476.074,0
1587513967.743,-28.809,38.086,-8.789,-18.066,955.078,0
1587513967.747,-35.156,42.969,-10.254,-30.273,782.715,0
1587513967.751,-33.691,42.480,-9.766,-44.434,-585.449,0
1587513967.755,1.953,41.992,-6.348,-6.348,-776.367,0
1587513967.759,31.738,40.527,-6.348,38.574,589.844,0
1587513967.762,24.902,35.645,-9.277,27.832,-977.539,0
1587513967.766,16.113,31.250,-12.207,2.930,-201.172,0
1587513967.770,24.902,27.832,-10.742,14.648,-1000.000,0
1587513967.774,46.875,25.391,-9.766,60.059,181.641,0
1587513967.778,46.387,25.879,-13.184,65.918,-864.746,0
1587513967.776,30.273,24.902,-16.113,37.598,193.848,0
1587513967.780,31.738,22.949,-15.625,30.273,-1000.000,0
1587513967.784,59.570,19.043,-15.625,69.824,-248.535,0
1587513967.788,71.777,20.020,-23.438,87.402,-898.926,0
1587513967.792,55.664,27.344,-33.203,62.988,570.312,0
1587513967.796,50.293,26.367,-26.367,46.875,-824.219,0
1587513967.800,80.566,23.926,-23.438,81.543,-577.637,0
1587513967.803,99.121,21.484,-27.344,110.840,832.031,0
1587513967.807,90.332,21.973,-21.484,90.332,856.934,0
1587513967.811,80.078,22.461,-21.973,63.477,-472.656,0
1587513967.815,96.680,16.113,-25.391,85.938,-842.773,0
1587513967.819,117.188,14.648,-24.902,121.094,505.371,0
1587513967.837,106.934,18.555,-20.996,108.398,-944.336,0
1587513967.841,86.426,17.578,-20.508,76.660,-108.887,0
1587513967.845,90.820,13.184,-21.973,80.566,-1000.000,0
1587513967.849,113.281,15.137,-18.555,124.023,39.551,0
1587513967.853,112.793,21.973,-15.625,127.930,-854.492,0
1587513967.857,87.402,13.184,-21.484,92.285,281.738,0
1587513967.861,76.172,9.277,-18.555,71.777,-1000.000,0
1587513967.864,101.074,14.648,-10.254,104.004,-349.609,0
1587513967.868,109.863,16.602,-6.836,125.977,-952.637,0
1587513967.872,90.820,14.648,-11.719,98.145,638.184,0
1587513967.876,82.031,11.719,-15.137,71.289,-765.625,0
1587513967.880,103.027,12.695,-11.719,98.633,-643.555,0
1587513967.876,119.629,14.160,-9.277,126.465,771.973,0
1587513967.880,106.934,9.766,-5.371,105.957,933.594,0
1587513967.884,96.680,12.207,-2.930,77.637,-370.117,0
1587513967.888,107.910,16.113,-9.277,87.402,-931.641,0
1587513967.892,123.047,13.184,-10.742,123.047,369.141,0
1587513967.896,107.910,11.230,-6.836,110.352,-910.156,0
1587513967.900,84.473,10.742,-4.883,76.660,18.555,0
1587513967.903,82.520,13.184,-3.906,76.660,-1000.000,0
1587513967.907,100.098,19.043,-3.418,110.352,-103.516,0
1587513967.911,96.191,16.602,-2.441,113.281,-905.762,0
1587513967.915,71.289,13.672,-1.465,81.055,386.719,0
1587513967.919,68.848,18.555,-0.488,66.406,-953.125,0
1587513967.917,92.285,15.625,3.418,99.121,-444.336,0
1587513967.921,98.145,16.113,6.836,118.652,980.957,0
1587513967.925,77.637,15.625,3.906,85.938,738.770,0
1587513967.929,63.477,13.184,4.395,57.129,-643.066,0
1587513967.933,81.543,17.578,5.371,78.613,-715.820,0
1587513967.937,92.773,19.043,4.395,100.586,678.223,0
1587513967.941,82.031,21.484,2.930,83.008,989.258,0
1587513967.944,66.406,20.996,1.953,51.270,-262.207,0
1587513967.948,68.848,19.043,-0.488,54.688,-999.512,0
1587513967.952,85.449,19.531,-3.418,87.402,236.816,0
1587513967.956,80.566,19.531,-0.488,79.102,-859.375,0
1587513967.960,62.012,19.043,-1.953,45.410,126.465,0
1587513967.976,60.059,20.508,-0.977,40.039,-1000.000,0
1587513967.980,83.984,25.879,5.859,82.031,-165.527,0
1587513967.984,81.055,20.996,1.953,83.984,-882.812,0
1587513967.988,53.711,15.137,-0.977,48.340,476.562,0
1587513967.992,41.992,19.531,0.488,31.738,-883.301,0
1587513967.996,63.477,18.555,-0.977,67.383,-536.621,0
1587513968.000,72.754,18.066,-2.441,83.496,883.301,0
1587513968.003,56.641,20.996,2.441,56.641,823.242,0
1587513968.007,46.875,25.879,2.441,32.715,-526.367,0
1587513968.011,61.035,27.832,-2.930,51.758,-830.078,0
1587513968.015,77.637,22.949,-0.488,84.961,526.855,0
1587513968.019,68.359,16.113,3.906,70.312,-977.539,0
1587513968.035,47.852,16.113,3.906,33.691,-173.828,0
1587513968.039,48.828,21.484,3.906,33.691,-1000.000,0
1587513968.043,74.707,23.926,5.371,74.707,109.375,0
1587513968.047,74.219,27.344,10.254,73.242,-870.117,0
1587513968.051,54.199,28.320,12.695,39.062,231.934,0
1587513968.055,47.852,23.438,10.742,26.367,-1000.000,0
1587513968.059,68.848,23.926,11.719,63.965,-322.266,0
1587513968.062,72.754,25.879,12.695,78.613,-930.664,0
1587513968.066,53.223,27.344,11.719,45.898,609.863,0
1587513968.070,35.645,22.949,6.836,20.996,-802.246,0
1587513968.074,54.199,23.926,5.371,53.223,-614.258,0
1587513968.078,68.359,23.438,9.766,78.125,807.617,0
1587513968.076,44.922,20.508,6.348,50.293,869.141,0
1587513968.080,25.879,26.855,5.859,20.996,-458.496,0
1587513968.084,35.645,24.414,3.906,29.785,-895.508,0
1587513968.088,51.758,16.113,7.324,60.547,420.410,0
1587513968.092,43.945,19.043,17.578,53.223,-919.434,0
1587513968.096,25.879,21.973,12.207,20.020,-51.758,0
1587513968.100,29.297,28.809,13.672,23.926,-1000.000,0
1587513968.103,53.711,31.738,22.949,59.082,-24.414,0
1587513968.107,51.758,24.902,20.020,56.152,-870.117,0
1587513968.111,29.297,19.043,14.160,22.461,320.312,0
1587513968.115,22.949,25.391,13.184,7.324,-994.629,0
1587513968.119,46.875,26.855,8.301,42.969,-403.320,0
1587513968.116,55.176,24.902,10.254,57.617,971.191,0
1587513968.120,41.016,29.785,23.926,34.180,687.988,0
1587513968.124,35.645,30.762,32.227,18.555,-670.898,0
1587513968.128,51.270,28.320,21.484,38.086,-676.270,0
1587513968.132,71.777,25.391,19.043,63.965,724.609,0
1587513968.136,66.895,23.926,23.926,41.992,976.562,0
1587513968.140,57.129,31.250,25.879,9.766,-304.199,0
1587513968.143,76.660,30.762,33.203,21.484,-963.867,0
1587513968.147,98.145,26.855,32.715,50.781,319.824,0
1587513968.151,88.379,27.344,28.320,41.504,-897.461,0
1587513968.155,60.547,26.855,32.715,13.672,34.180,0
1587513968.159,43.457,28.320,40.039,13.184,-1000.000,0
1587513968.157,54.199,29.297,41.992,53.711,-133.789,0
1587513968.161,44.922,25.391,40.039,62.012,-898.926,0
1587513968.165,10.742,20.996,39.062,28.809,418.945,0
1587513968.169,-1.953,18.066,41.504,10.742,-923.828,0
1587513968.173,24.414,19.531,46.387,44.922,-494.629,0
1587513968.177,30.273,19.531,39.062,55.664,924.316,0
1587513968.181,15.137,23.926,37.109,25.879,784.180,0
