timestamps,TP9,AF7,AF8,TP10,Right AUX,Marker0
10458.819,39.062,36.621,33.203,32.227,35.645,0
10458.823,31.250,31.738,23.438,35.645,16.602,0
10458.827,28.809,26.855,33.691,41.016,10.254,0
10458.831,30.273,29.785,36.133,40.527,20.508,0
10458.835,29.297,39.062,32.715,36.133,23.438,0
10458.839,30.273,38.574,35.645,42.480,20.996,0
10458.842,36.133,34.180,35.156,43.457,26.367,0
10458.846,38.574,31.250,32.715,42.969,24.902,0
10458.850,30.273,36.133,36.621,51.758,29.785,0
10458.854,27.344,30.762,33.691,43.945,34.668,0
10458.858,35.645,21.484,22.461,39.551,36.621,0
10458.862,43.945,23.438,20.020,45.410,42.969,0
10458.866,46.875,31.250,27.832,41.992,40.527,0
10458.870,39.551,42.480,31.250,27.344,30.273,0
10458.874,35.156,47.363,36.621,33.203,38.086,0
10458.878,36.133,44.434,33.691,36.133,45.898,0
10458.882,38.086,35.156,26.855,28.320,38.574,0
10458.885,43.945,30.762,27.832,34.668,34.180,0
10458.889,43.457,37.598,22.461,37.109,36.621,0
10458.893,41.016,39.551,17.578,35.645,41.992,0
10458.897,49.805,36.133,19.043,39.551,43.945,0
10458.901,54.688,33.203,22.949,36.133,36.621,0
10458.905,41.992,26.367,27.344,30.762,39.062,0
10458.909,32.715,23.926,29.297,25.879,41.504,0
10458.913,34.180,33.691,24.902,29.785,21.484,0
10458.917,40.039,36.133,29.785,39.551,18.555,0
10458.921,35.156,26.855,37.598,36.621,27.832,0
10458.925,28.809,24.902,34.180,31.738,24.414,0
10458.928,33.203,31.738,29.785,32.227,23.926,0
10458.932,31.250,30.762,23.926,33.691,31.738,0
10458.936,26.855,22.461,23.926,33.691,32.227,0
10458.940,29.785,22.949,34.180,34.668,21.484,2
10458.944,33.203,31.250,39.062,33.691,20.996,0
10458.948,29.785,25.879,39.062,37.598,22.949,0
10458.952,28.809,18.066,37.598,37.109,7.324,0
10458.956,29.785,26.855,39.551,36.133,6.836,0
10458.960,31.738,33.203,38.574,41.992,16.113,0
10458.964,29.785,29.297,33.691,29.785,9.766,0
10458.967,28.320,25.879,33.203,19.043,1.953,0
10458.971,30.762,26.855,34.180,26.367,0.488,0
10458.975,29.297,32.715,35.156,32.715,8.789,0
10458.979,37.109,39.062,25.879,36.133,21.973,0
10458.983,40.527,42.480,20.508,36.133,20.020,0
10458.987,39.551,37.598,26.855,30.273,12.695,0
10458.991,43.457,21.484,30.273,30.762,16.602,0
10458.995,36.133,24.902,35.156,33.691,20.020,0
10458.999,29.297,41.504,36.621,37.598,23.926,0
10459.003,33.203,36.133,32.227,26.855,17.090,0
10459.007,31.738,32.227,28.809,22.461,12.207,0
10459.010,30.762,37.598,27.344,35.156,16.602,0
10459.014,39.551,36.621,29.785,32.715,21.484,0
10459.018,37.598,35.156,31.738,25.879,19.531,0
10459.022,27.832,34.180,30.273,28.320,14.648,0
10459.026,22.949,34.180,34.180,32.227,29.785,0
10459.030,20.508,35.156,33.203,29.785,35.156,0
10459.034,22.949,31.738,27.344,24.414,19.043,0
10459.038,28.809,31.250,31.738,27.344,15.625,0
10459.042,35.156,32.715,32.715,31.738,22.461,0
10459.046,33.203,29.785,35.645,35.156,29.785,0
10459.050,30.273,27.832,39.062,37.598,22.949,0
10459.053,31.250,29.785,37.598,31.738,11.719,0
10459.057,30.762,33.203,32.715,43.457,15.137,0
10459.061,28.320,23.926,27.832,52.734,24.414,0
10459.065,23.438,19.531,29.297,34.668,27.832,0
10459.069,24.414,32.227,31.250,28.320,23.438,0
10459.073,37.109,37.598,36.621,34.180,32.227,0
10459.077,40.527,38.086,36.133,35.156,40.039,0
10459.081,31.738,36.133,31.250,41.504,35.645,0
10459.085,29.785,36.133,31.738,37.109,32.715,0
10459.089,26.367,35.156,31.738,27.344,29.785,0
10459.092,36.133,30.273,34.668,33.691,43.945,0
10459.096,41.992,24.902,35.156,42.969,55.176,0
10459.100,35.645,31.738,32.227,34.668,36.621,0
10459.104,37.109,44.922,27.344,29.785,18.555,0
10459.108,41.992,47.852,26.367,37.109,37.598,0
10459.112,40.527,41.992,26.855,40.039,58.594,0
10459.116,41.504,37.598,26.367,34.180,49.316,0
10459.120,42.969,37.598,36.621,30.762,43.457,0
10459.124,37.598,33.691,33.691,39.062,43.945,0
10459.128,39.551,28.320,25.879,37.109,35.156,0
10459.132,36.621,35.156,30.273,37.598,23.926,0
10459.135,29.297,35.156,34.668,34.668,17.578,0
10459.139,31.250,25.879,35.156,33.203,28.320,0
10459.143,30.762,26.855,35.156,30.273,37.598,0
10459.147,32.715,39.551,37.109,28.320,40.527,0
10459.151,35.645,41.504,33.203,39.551,45.410,0
10459.155,33.203,34.668,32.227,49.316,41.016,0
10459.159,37.109,33.691,38.574,49.805,45.410,0
10459.163,35.156,35.156,43.945,42.480,51.270,0
10459.167,27.344,32.227,43.457,36.133,52.246,0
10459.171,34.668,22.461,32.715,33.691,55.176,0
10459.175,38.086,22.461,34.668,35.645,62.012,0
10459.178,35.645,35.156,45.898,37.109,68.359,0
10459.182,39.551,42.480,45.410,36.133,66.895,0
10459.186,46.387,41.016,42.480,41.992,73.730,0
10459.190,51.758,37.598,43.945,42.480,72.266,0
10459.194,49.805,38.086,43.457,47.363,71.777,0
10459.198,52.734,39.551,41.016,48.828,76.172,0
10459.202,50.781,41.992,41.016,43.945,62.988,0
10459.206,44.922,32.227,40.527,45.898,61.523,0
10459.210,44.434,28.320,38.086,46.387,67.871,0
10459.214,42.969,40.039,37.109,48.828,62.500,0
10459.217,43.457,43.457,39.551,50.781,56.152,0
10459.221,38.086,41.992,34.668,40.527,52.734,0
10459.225,30.762,37.598,33.691,32.227,38.574,0
10459.229,27.832,32.715,40.527,30.762,30.762,0
10459.233,23.438,30.762,42.969,31.250,27.832,0
10459.237,17.578,25.391,35.645,26.855,14.160,0
10459.241,18.555,19.043,35.645,28.320,14.648,0
10459.245,19.043,16.113,45.410,26.367,24.414,0
10459.249,15.625,26.855,50.293,28.320,26.367,0
10459.253,14.160,27.832,48.828,32.227,26.855,0
10459.257,12.207,13.672,49.316,35.156,36.621,0
10459.260,12.207,16.113,45.410,43.945,41.504,0
10459.264,13.672,24.902,40.527,41.016,32.227,0
10459.268,20.020,33.691,42.969,47.363,24.902,0
10459.272,27.344,34.180,39.062,50.293,34.668,0
10459.276,29.785,24.414,32.227,37.598,42.969,0
10459.280,28.320,24.902,29.785,34.668,48.828,0
10459.284,32.227,21.484,23.438,39.551,41.992,0
10459.288,43.945,28.320,22.461,43.945,37.109,0
10459.292,48.828,37.109,28.809,47.363,48.340,0
10459.296,49.316,35.645,27.832,49.805,41.992,0
10459.300,44.434,34.180,30.273,45.898,41.992,0
10459.303,45.410,34.180,30.762,52.246,59.570,0
10459.307,48.828,35.645,33.203,59.570,60.059,0
10459.311,45.898,25.879,40.527,37.109,34.180,0
10459.315,42.969,14.648,37.598,24.414,21.484,0
10459.319,34.668,23.926,37.109,35.156,21.484,0
10459.323,38.574,34.668,41.504,39.551,30.273,0
10459.327,41.992,31.250,46.387,45.898,53.223,0
10459.331,35.645,27.344,38.086,46.875,60.547,0
10459.335,39.062,25.391,29.785,44.434,47.852,0
10459.339,38.574,22.949,28.809,48.340,38.574,0
10459.342,32.227,22.461,30.762,43.457,45.898,0
10459.346,27.344,13.184,38.574,30.762,38.086,0
10459.350,26.367,18.555,34.668,27.832,23.438,0
10459.354,27.344,30.762,30.762,38.574,39.551,0
10459.358,25.391,23.926,35.156,41.504,59.082,0
10459.362,31.250,16.602,45.410,41.016,62.988,0
10459.366,42.969,31.250,52.246,42.480,55.664,0
10459.370,41.016,25.879,42.480,45.898,41.016,0
10459.374,43.457,17.578,37.598,51.270,25.391,0
10459.378,48.340,34.180,37.109,51.758,23.926,0
10459.382,43.457,38.086,32.715,43.945,25.879,0
10459.385,40.039,38.574,31.738,32.715,31.738,0
10459.389,41.504,41.016,35.156,25.879,39.062,0
10459.393,38.086,36.621,37.109,29.297,39.551,0
10459.397,33.691,36.133,34.180,31.250,34.668,0
10459.401,31.738,39.062,36.133,31.738,23.926,0
10459.405,28.809,37.109,34.180,31.250,20.508,0
10459.409,37.598,39.062,34.668,29.297,30.762,0
10459.413,34.668,38.574,36.621,30.762,41.504,0
10459.417,23.926,36.133,29.785,35.156,34.180,0
10459.421,31.250,38.574,25.391,32.715,16.602,0
10459.425,33.203,33.691,22.949,24.902,9.277,0
10459.428,25.391,29.297,25.879,23.926,9.766,0
10459.432,20.508,29.297,25.879,24.414,8.301,0
10459.436,16.602,35.156,21.484,28.809,10.254,0
10459.440,16.113,37.598,21.973,31.250,17.578,0
10459.444,18.555,30.273,25.391,30.273,25.879,0
10459.448,19.531,32.715,30.762,38.086,32.227,0
10459.452,17.090,36.133,33.691,39.551,22.949,0
10459.456,22.461,30.273,33.203,35.156,15.625,0
10459.460,30.762,27.344,33.203,35.645,32.227,0
10459.464,32.227,28.320,35.156,38.574,42.480,0
10459.467,28.809,24.902,39.062,51.270,33.691,0
10459.471,18.066,27.832,40.527,49.805,20.020,0
10459.475,21.484,28.809,33.203,44.434,29.785,0
10459.479,30.762,29.785,32.715,44.922,46.875,0
10459.483,37.109,37.109,38.086,41.016,49.805,0
10459.487,44.434,38.086,32.227,41.992,49.805,0
10459.491,44.922,34.180,29.785,44.922,56.152,0
10459.495,45.898,34.180,37.109,37.109,62.012,0
10459.499,45.898,35.645,40.039,40.527,37.598,0
10459.503,42.480,31.738,41.016,54.688,13.672,2
10459.507,38.086,30.762,37.598,49.805,22.949,0
10459.510,42.480,32.715,35.156,38.086,39.551,0
10459.514,51.758,32.227,40.039,40.039,38.086,0
10459.518,43.457,28.809,35.156,34.180,19.531,0
10459.522,32.715,32.227,33.691,30.762,23.438,0
10459.526,38.086,41.016,34.668,40.039,36.621,0
10459.530,44.434,41.016,33.203,41.504,35.156,0
10459.534,37.598,39.062,33.691,39.551,33.691,0
10459.538,34.180,40.039,34.668,44.434,39.551,0
10459.542,36.621,39.551,41.992,49.316,53.223,0
10459.546,36.133,35.156,42.480,40.039,52.734,0
10459.550,41.992,33.691,37.598,36.133,42.480,0
10459.553,41.504,38.574,34.180,51.758,44.922,0
10459.557,43.457,42.969,29.297,55.664,52.734,0
10459.561,45.898,35.645,27.832,40.039,51.758,0
10459.565,41.992,32.715,34.180,36.133,53.223,0
10459.569,39.062,39.551,35.645,38.086,54.199,0
10459.573,35.645,41.016,27.832,38.086,41.992,0
10459.577,33.203,34.668,31.250,36.133,40.039,0
10459.581,31.738,32.227,33.203,35.645,49.805,0
10459.585,26.855,33.691,27.832,41.504,52.246,0
10459.589,34.180,40.527,28.320,41.016,52.734,0
10459.592,41.992,39.551,27.832,34.668,41.992,0
10459.596,39.551,31.738,29.785,38.086,37.109,0
10459.600,37.598,36.621,31.250,42.480,22.949,0
10459.604,32.227,35.645,25.391,40.527,11.719,0
10459.608,29.785,30.762,24.902,30.762,30.762,0
10459.612,29.297,31.738,27.344,22.949,33.691,0
10459.616,28.320,29.785,26.367,23.438,18.066,0
10459.620,28.809,27.344,28.320,24.414,12.695,0
10459.624,35.645,31.250,32.227,24.414,5.859,0
10459.628,36.133,32.227,31.250,24.902,5.371,0
10459.632,33.203,31.250,29.297,31.738,15.137,0
10459.635,31.738,34.180,30.273,41.992,22.461,0
10459.639,26.855,33.203,25.391,36.621,24.902,0
10459.643,31.738,33.203,25.391,22.949,27.832,0
10459.647,32.715,33.691,33.203,28.809,35.156,0
10459.651,26.367,31.250,34.668,29.785,25.391,0
10459.655,35.156,34.180,35.645,26.855,18.555,0
10459.659,37.598,33.203,34.180,33.203,25.391,0
10459.663,32.227,28.320,31.250,36.621,34.668,0
10459.667,36.621,29.297,27.832,37.109,38.086,0
10459.671,29.785,31.738,26.367,34.180,21.484,0
10459.675,15.137,26.367,30.762,40.039,12.695,0
10459.678,16.113,23.438,29.785,42.480,21.484,0
10459.682,19.531,25.391,32.715,29.785,31.250,0
10459.686,14.648,28.320,35.645,23.926,25.879,0
10459.690,20.996,34.180,34.668,31.738,30.273,0
10459.694,29.297,35.645,37.109,41.504,43.945,0
10459.698,30.273,34.180,40.039,49.316,44.434,0
10459.702,34.668,34.668,38.086,49.316,42.969,0
10459.706,38.574,33.691,36.133,39.551,47.852,0
10459.710,42.969,28.320,37.109,44.922,49.316,0
10459.714,42.480,32.715,32.715,42.969,46.875,0
10459.717,39.551,34.668,31.738,39.551,32.715,0
10459.721,41.992,29.297,31.250,46.875,28.320,0
10459.725,46.387,33.203,22.461,41.992,40.039,0
10459.729,54.199,41.504,21.484,42.480,42.969,0
10459.733,54.199,41.992,24.414,45.410,34.180,0
10459.737,46.387,41.016,21.973,36.133,22.949,0
10459.741,46.387,44.434,20.020,34.180,31.250,0
10459.745,41.504,43.457,19.043,31.250,35.156,0
10459.749,28.320,39.062,23.438,32.227,32.227,0
10459.753,23.438,36.133,25.391,40.039,23.926,0
10459.757,35.645,33.203,23.438,46.875,35.645,0
10459.760,46.387,34.180,24.414,49.316,51.270,0
10459.764,38.574,36.133,24.902,38.086,45.410,0
10459.768,36.133,37.109,28.809,36.133,40.039,0
10459.772,40.527,37.598,30.273,48.828,36.133,0
10459.776,41.504,43.457,32.715,51.758,43.457,0
10459.780,40.039,44.922,34.180,45.898,47.363,0
10459.784,29.785,38.086,30.762,41.016,34.668,0
10459.788,25.879,38.086,32.227,44.434,28.320,0
10459.792,27.832,36.621,33.691,41.016,46.875,0
10459.796,20.996,34.668,31.250,28.809,57.129,0
10459.800,18.066,34.668,31.738,31.738,34.668,0
10459.803,24.414,37.109,34.668,41.016,23.438,0
10459.807,32.227,38.086,37.109,43.945,25.879,0
10459.811,38.086,39.551,34.668,40.039,21.484,0
10459.815,41.016,41.504,32.227,43.457,24.902,0
10459.819,39.551,39.062,30.762,45.410,30.762,0
10459.823,34.668,39.062,32.715,40.039,29.297,0
10459.827,37.109,39.551,34.180,45.410,38.086,0
10459.831,44.922,43.457,34.180,55.176,46.875,0
10459.835,52.246,43.457,35.645,46.387,42.480,0
10459.839,53.711,39.551,31.738,31.250,40.527,0
10459.842,48.828,44.922,30.273,37.598,28.809,0
10459.846,49.316,44.922,34.180,41.992,22.461,0
10459.850,44.434,35.156,34.180,38.086,27.832,0
10459.854,34.668,39.062,30.762,39.062,38.574,0
10459.858,36.133,45.898,28.320,54.688,59.082,0
10459.862,31.250,41.016,28.809,55.176,51.758,0
10459.866,24.902,41.504,33.691,36.133,26.367,0
10459.870,25.879,42.480,34.668,31.250,22.949,0
10459.874,20.996,39.551,30.273,34.180,32.227,0
10459.878,22.949,35.645,29.785,41.504,40.039,0
10459.882,29.297,33.203,29.297,46.875,41.016,0
10459.885,32.227,33.203,28.809,44.434,37.598,0
10459.889,31.738,35.645,30.762,54.199,41.992,0
10459.893,27.832,33.691,28.809,55.176,43.457,0
10459.897,33.691,32.227,27.344,47.852,43.945,0
10459.901,38.574,35.156,30.762,51.758,50.293,0
10459.905,34.668,38.574,33.691,52.734,48.828,0
10459.909,35.156,39.551,36.621,48.340,43.945,0
10459.913,39.551,33.691,31.250,47.363,42.480,0
10459.917,45.898,37.109,25.391,50.293,48.828,0
10459.921,41.016,41.016,31.738,44.922,45.898,0
10459.925,33.691,40.039,39.062,42.969,38.086,0
10459.928,37.598,37.598,38.086,43.457,31.738,0
10459.932,39.551,36.133,31.250,42.480,19.531,0
10459.936,37.598,38.086,29.297,38.574,22.949,0
10459.940,38.574,36.133,29.297,39.551,37.109,0
10459.944,38.086,39.551,31.250,53.223,41.504,0
10459.948,35.645,38.086,34.180,40.527,32.715,0
10459.952,38.086,32.715,34.668,25.879,27.832,0
10459.956,38.086,34.668,39.551,35.645,39.551,0
10459.960,30.762,41.016,42.480,38.574,51.758,0
10459.964,24.902,45.898,38.086,42.480,44.434,0
10459.967,20.996,39.551,34.180,49.316,24.902,0
10459.971,22.949,34.180,35.645,54.688,23.438,0
10459.975,29.785,39.062,35.645,54.688,30.273,0
10459.979,31.738,40.527,27.344,45.410,25.879,0
10459.983,35.156,40.527,30.273,42.480,22.461,0
10459.987,30.273,35.645,31.250,43.457,17.090,0
10459.991,28.320,30.762,27.832,41.504,16.113,0
10459.995,28.320,31.250,32.227,38.574,23.926,0
10459.999,27.344,31.250,32.715,41.016,25.879,0
10460.003,24.902,28.809,28.320,39.551,19.531,0
10460.007,23.438,22.949,25.391,38.574,19.531,0
10460.010,25.879,19.043,24.902,34.668,28.320,0
10460.014,26.367,23.438,25.879,29.785,27.832,0
10460.018,31.738,28.320,28.809,41.504,24.414,0
10460.022,33.691,32.227,28.809,39.551,25.391,0
10460.026,41.504,29.297,26.367,38.086,35.645,0
10460.030,38.086,24.902,25.391,49.805,60.059,0
10460.034,25.879,25.391,23.926,39.551,47.363,0
10460.038,25.879,27.832,27.344,34.180,33.203,0
10460.042,27.832,29.785,32.227,38.086,31.250,0
10460.046,25.391,27.832,27.344,36.621,9.277,2
10460.050,20.996,20.020,22.949,33.691,3.906,0
10460.053,28.320,17.090,24.902,38.086,13.672,0
10460.057,35.645,27.832,29.297,34.668,21.973,0
10460.061,37.598,34.180,30.762,17.090,23.926,0
10460.065,38.574,31.250,27.832,16.602,23.438,0
10460.069,36.133,34.180,29.297,33.203,29.297,0
10460.073,26.367,39.062,33.691,36.621,47.363,0
10460.077,28.320,33.203,38.086,36.133,41.992,0
10460.081,32.227,32.715,31.738,37.598,16.113,0
10460.085,30.273,37.598,21.484,38.086,11.230,0
10460.089,27.832,33.203,21.973,39.062,17.578,0
10460.092,27.344,26.367,22.949,38.086,28.809,0
10460.096,31.250,30.762,21.484,38.086,34.668,0
10460.100,29.785,34.668,22.949,37.598,27.344,0
10460.104,28.320,35.645,29.785,49.316,27.344,0
10460.108,32.227,33.691,32.227,49.805,39.551,0
10460.112,30.762,25.879,27.832,30.273,44.434,0
10460.116,29.297,28.809,26.855,32.227,41.016,0
10460.120,30.762,31.250,27.344,40.039,39.062,0
10460.124,30.762,29.297,26.855,38.086,50.781,0
10460.128,38.086,30.762,31.738,34.668,52.246,0
10460.132,39.551,34.180,34.180,43.945,48.828,0
10460.135,33.203,33.691,34.668,42.480,50.781,0
10460.139,35.645,29.297,35.645,42.969,62.012,0
10460.143,44.922,27.832,34.180,58.594,68.848,0
10460.147,45.898,24.414,32.227,48.340,57.617,0
10460.151,45.898,30.762,40.039,41.992,49.316,0
10460.155,46.875,32.227,44.922,37.598,50.293,0
10460.159,41.504,28.809,42.480,26.367,61.523,0
10460.163,39.551,35.156,41.992,32.227,54.199,0
10460.167,34.180,33.691,42.969,32.227,37.598,0
10460.171,40.527,36.133,49.316,28.809,44.922,0
10460.175,44.434,38.574,46.875,32.715,50.293,0
10460.178,34.180,37.598,43.457,35.156,45.898,0
10460.182,36.621,31.738,46.875,37.109,36.133,0
10460.186,41.504,26.855,42.969,33.203,34.180,0
10460.190,35.645,29.297,42.969,36.621,48.340,0
10460.194,32.715,35.156,46.875,39.551,56.641,0
10460.198,29.297,32.227,43.945,35.645,50.293,0
10460.202,31.250,32.227,41.992,33.691,46.875,0
10460.206,32.227,36.621,45.410,30.273,48.340,0
10460.210,30.762,35.645,51.270,31.250,54.199,0
10460.214,36.133,30.273,53.223,38.086,59.082,0
10460.217,33.203,32.715,46.875,31.738,50.781,0
10460.221,33.691,39.062,43.945,28.320,46.387,0
10460.225,30.762,38.086,42.969,35.156,49.316,0
10460.229,28.320,37.109,37.109,43.457,45.410,0
10460.233,31.738,36.133,36.621,38.574,34.668,0
10460.237,35.645,35.645,41.016,32.227,28.320,0
10460.241,38.086,36.621,42.969,35.156,33.691,0
10460.245,39.062,38.574,44.434,39.551,36.621,0
10460.249,39.551,32.715,42.480,29.785,31.738,0
10460.253,33.691,25.879,41.016,20.996,23.926,0
10460.257,28.809,26.855,41.992,29.785,31.250,0
10460.260,32.227,29.297,35.156,22.949,32.715,0
10460.264,35.156,31.250,33.691,19.043,31.738,0
10460.268,27.344,33.203,35.156,27.344,32.227,0
10460.272,22.949,35.645,39.062,33.203,37.598,0
10460.276,27.344,34.668,43.457,31.250,43.945,0
10460.280,31.250,34.668,41.504,28.809,46.875,0
10460.284,38.086,28.320,39.062,29.297,51.270,0
10460.288,34.180,23.438,39.062,35.645,52.246,0
10460.292,34.668,35.156,41.016,46.387,57.617,0
10460.296,40.039,44.434,41.992,39.551,55.176,0
10460.300,39.551,41.992,43.945,34.668,46.875,0
10460.303,35.645,37.109,44.434,44.434,47.363,0
10460.307,27.344,35.645,41.504,43.457,51.758,0
10460.311,27.344,36.621,40.039,35.645,46.387,0
10460.315,28.320,34.180,38.086,28.809,41.504,0
10460.319,27.344,33.691,35.645,35.645,30.762,0
10460.323,24.414,33.691,34.180,40.039,17.090,0
10460.327,27.344,27.832,34.180,38.574,24.902,0
10460.331,30.762,27.832,36.621,32.715,42.480,0
10460.335,27.832,31.738,39.062,33.203,40.039,0
10460.339,33.691,33.691,40.039,38.086,23.438,0
10460.342,37.109,30.762,37.598,39.062,20.996,0
10460.346,41.016,28.320,35.156,36.133,27.344,0
10460.350,36.133,34.180,39.551,41.992,36.621,0
10460.354,24.902,31.738,41.992,50.293,37.109,0
10460.358,21.484,17.578,38.086,31.738,39.551,0
10460.362,26.367,14.160,31.738,23.438,53.223,0
10460.366,28.320,22.461,33.203,41.504,46.387,0
10460.370,23.926,30.273,37.598,42.969,27.344,0
10460.374,26.855,33.203,34.180,30.273,42.480,0
10460.378,28.320,33.203,29.785,26.855,56.152,0
10460.382,25.391,30.273,29.785,32.227,38.086,0
10460.385,33.203,32.715,34.180,50.293,21.484,0
10460.389,38.574,32.715,32.715,41.992,18.555,0
10460.393,36.133,28.809,27.832,31.738,25.391,0
10460.397,38.574,29.785,30.273,39.551,23.438,0
10460.401,34.180,29.297,28.809,36.621,16.113,0
10460.405,32.715,29.785,26.855,36.621,19.531,0
10460.409,37.598,33.691,29.785,41.504,36.621,0
10460.413,37.598,29.785,32.227,48.340,41.016,0
10460.417,31.738,25.391,32.715,48.340,27.832,0
10460.421,23.926,25.879,31.250,38.086,24.414,0
10460.425,22.461,25.391,29.785,32.715,30.762,0
10460.428,29.297,26.855,32.227,38.574,33.691,0
10460.432,27.344,32.227,35.645,47.363,38.574,0
10460.436,18.555,30.762,31.738,41.016,25.879,0
10460.440,23.926,24.414,31.250,40.527,30.762,0
10460.444,37.598,24.902,32.715,41.016,43.945,0
10460.448,41.992,29.785,30.762,35.156,42.969,0
10460.452,37.598,35.156,32.227,38.086,45.410,0
10460.456,34.180,38.574,31.738,47.363,34.668,0
10460.460,31.250,33.691,25.391,37.598,36.621,0
10460.464,31.250,22.461,22.461,21.973,42.969,0
10460.467,34.668,21.973,26.855,24.902,29.785,0
10460.471,40.527,22.461,23.438,32.227,19.043,0
10460.475,43.457,25.391,20.996,47.363,31.738,0
10460.479,40.527,34.180,24.902,48.340,41.992,0
10460.483,35.156,34.180,24.414,33.691,27.832,0
10460.487,31.250,28.809,22.461,28.320,12.695,0
10460.491,32.227,32.715,22.949,30.762,20.996,0
10460.495,34.180,33.691,22.949,29.785,23.926,0
10460.499,34.668,31.738,22.461,28.320,20.996,0
10460.503,33.203,32.715,27.344,34.180,24.414,0
10460.507,30.273,32.715,34.180,38.574,32.227,0
10460.510,40.039,36.621,35.156,36.621,41.992,0
10460.514,44.434,35.645,33.691,37.598,40.039,0
10460.518,27.344,27.344,31.250,34.180,32.227,0
10460.522,27.344,15.625,29.785,31.738,31.738,0
10460.526,41.504,21.484,28.320,38.574,40.527,0
10460.530,41.016,40.527,32.715,41.016,44.434,0
10460.534,36.621,40.039,35.645,38.574,35.645,0
10460.538,35.156,35.645,39.062,36.133,34.668,0
10460.542,34.180,35.156,40.527,35.645,41.992,0
10460.546,40.527,34.668,34.668,31.738,44.434,0
10460.550,35.156,33.691,29.785,20.996,41.504,0
10460.553,31.250,31.738,28.320,27.832,31.250,0
10460.557,43.945,29.297,28.809,41.992,31.738,0
10460.561,54.688,32.715,29.785,46.875,51.758,0
10460.565,53.711,37.109,26.367,35.645,64.941,0
10460.569,41.992,37.109,21.484,32.227,62.012,0
10460.573,40.039,35.645,26.367,42.480,53.711,0
10460.577,37.598,32.715,31.738,41.504,37.109,0
10460.581,39.062,29.785,31.250,34.668,20.996,0
10460.585,43.945,31.250,31.738,28.809,21.973,0
10460.589,41.504,32.227,31.250,30.273,29.297,0
10460.592,35.156,27.344,32.227,41.504,37.109,0
10460.596,25.879,25.391,33.203,37.109,38.086,0
10460.600,28.320,28.320,33.691,38.086,38.086,0
10460.604,30.762,32.715,31.250,43.457,43.457,0
10460.608,31.738,36.133,28.809,30.762,46.387,0
10460.612,32.715,33.691,26.367,30.273,36.133,0
10460.616,34.668,30.762,24.902,32.227,29.785,0
10460.620,40.039,32.227,28.320,36.621,33.203,1
10460.624,38.086,34.180,31.738,46.875,33.691,0
10460.628,35.156,29.785,30.273,43.945,38.086,0
10460.632,39.062,30.762,32.227,41.992,37.109,0
10460.635,41.016,35.645,32.227,50.781,28.809,0
10460.639,47.852,37.109,29.785,46.387,33.203,0
10460.643,47.363,37.109,27.832,32.715,40.527,0
10460.647,41.992,36.621,25.391,32.715,42.969,0
10460.651,31.738,32.715,25.391,26.855,34.180,0
10460.655,24.414,32.715,24.902,24.902,19.531,0
10460.659,30.273,31.250,26.855,34.180,28.320,0
10460.663,33.691,24.414,24.414,31.738,35.645,0
10460.667,33.691,27.344,23.926,33.203,25.879,0
10460.671,27.832,22.461,24.902,28.809,23.926,0
10460.675,30.762,22.949,21.973,23.438,24.414,0
10460.678,38.574,36.621,20.996,36.133,31.250,0
10460.682,36.133,40.527,23.438,40.527,35.156,0
10460.686,34.668,39.551,29.297,33.203,31.250,0
10460.690,40.039,40.527,28.320,25.879,27.344,0
10460.694,40.527,39.062,30.273,32.227,35.156,0
10460.698,33.691,37.598,28.320,33.203,43.945,0
10460.702,36.133,38.574,24.902,37.109,40.039,0
10460.706,32.227,40.039,30.273,47.852,33.203,0
10460.710,29.297,38.086,31.250,45.410,41.016,0
10460.714,36.621,32.227,31.250,38.086,39.551,0
10460.717,36.133,31.250,34.668,40.039,20.508,0
10460.721,34.180,34.668,32.227,50.781,16.113,0
10460.725,40.039,38.574,29.785,44.922,25.879,0
10460.729,40.527,41.504,33.203,36.133,35.645,0
10460.733,36.621,42.480,36.133,39.551,41.016,0
10460.737,32.715,36.133,31.250,34.180,32.715,0
10460.741,27.832,29.785,27.832,35.156,26.367,0
10460.745,36.133,29.785,27.344,40.039,34.180,0
10460.749,40.527,32.715,27.344,38.574,37.598,0
10460.753,29.785,34.180,27.832,43.945,23.926,0
10460.757,26.855,33.203,27.344,42.969,35.156,0
10460.760,30.273,30.762,26.367,33.691,47.363,0
10460.764,29.785,30.273,23.438,31.250,28.809,0
10460.768,29.785,35.156,25.391,32.715,13.184,0
10460.772,32.715,40.039,30.762,28.809,13.184,0
10460.776,31.738,40.039,33.203,32.227,27.832,0
10460.780,37.109,37.598,30.762,46.387,35.156,0
10460.784,40.527,33.691,25.879,41.016,34.180,0
10460.788,36.621,37.109,27.832,35.645,34.668,0
10460.792,43.945,41.016,33.691,42.480,36.621,0
10460.796,44.434,41.504,31.250,41.992,38.574,0
10460.800,34.180,34.180,31.250,35.156,30.762,0
10460.803,26.367,27.344,33.203,36.133,25.391,0
10460.807,32.227,34.180,26.855,38.574,41.504,0
10460.811,32.715,36.133,23.438,37.109,54.199,0
10460.815,24.414,28.809,28.809,36.621,46.387,0
10460.819,22.949,27.344,28.809,31.738,34.180,0
10460.823,23.438,29.297,22.949,28.809,32.227,0
10460.827,32.715,29.297,26.855,25.879,40.527,0
10460.831,37.109,28.320,28.809,19.531,39.062,0
10460.835,34.180,31.250,27.344,30.273,22.461,0
10460.839,30.762,33.691,29.297,41.016,15.137,0
10460.842,28.809,30.273,26.855,38.574,20.996,0
10460.846,25.879,24.414,23.438,30.273,23.926,0
10460.850,31.250,28.320,29.297,24.414,21.973,0
10460.854,33.691,37.109,31.250,31.250,20.996,0
10460.858,29.785,38.574,27.344,31.250,25.391,0
10460.862,38.574,36.621,28.809,26.367,41.992,0
10460.866,44.922,38.086,31.250,33.203,48.828,0
10460.870,39.551,33.691,27.344,32.227,34.180,0
10460.874,36.133,28.809,26.367,24.902,25.879,0
10460.878,37.109,33.691,25.879,30.273,27.344,0
10460.882,32.227,35.645,20.996,34.180,25.879,0
10460.885,30.762,34.180,22.949,28.320,18.555,0
10460.889,39.551,34.180,25.879,32.715,24.902,0
10460.893,41.016,32.715,24.414,40.527,41.504,0
10460.897,28.320,31.250,22.461,31.250,36.133,0
10460.901,26.367,27.832,25.879,26.855,22.949,0
10460.905,27.832,22.949,25.391,33.691,23.926,0
10460.909,30.762,26.855,25.879,34.668,25.391,0
10460.913,36.133,32.227,30.762,27.832,20.508,0
10460.917,32.715,34.668,33.691,28.809,21.973,0
10460.921,24.414,29.785,35.645,29.297,29.785,0
10460.925,24.414,22.949,36.621,32.227,35.645,0
10460.928,33.203,30.273,27.344,40.039,39.551,0
10460.932,41.016,37.109,20.996,35.645,32.227,0
10460.936,46.387,37.109,31.250,29.785,23.438,0
10460.940,40.527,38.086,34.180,30.273,35.645,0
10460.944,39.062,37.598,31.738,35.156,41.992,0
10460.948,41.016,35.645,34.668,40.039,43.457,0
10460.952,36.133,36.621,30.273,44.434,41.992,0
10460.956,39.062,35.645,30.762,43.457,34.668,0
10460.960,42.969,34.668,36.133,35.156,35.645,0
10460.964,36.133,23.926,33.691,31.250,41.016,0
10460.967,32.715,21.973,29.785,34.668,29.785,0
10460.971,30.762,37.598,32.227,40.527,24.414,0
10460.975,38.086,44.434,36.621,44.434,39.551,0
10460.979,38.574,39.551,38.086,37.598,42.969,0
10460.983,35.156,38.086,36.133,28.809,32.715,0
10460.987,38.574,38.574,36.621,27.344,26.367,0
10460.991,30.273,30.273,34.668,31.250,38.086,0
10460.995,23.438,28.809,29.785,39.062,48.340,0
10460.999,17.578,34.180,23.438,39.062,32.715,0
10461.003,16.113,30.273,24.902,39.551,24.414,0
10461.007,22.949,28.809,34.180,34.180,30.273,0
10461.010,23.438,32.715,32.227,29.297,25.879,0
10461.014,21.973,32.227,27.344,33.203,22.461,0
10461.018,24.902,27.832,28.320,31.250,18.066,0
10461.022,21.484,23.926,30.273,34.668,12.207,0
10461.026,29.785,22.949,31.250,35.645,21.973,0
10461.030,49.316,29.297,30.273,47.363,43.945,0
10461.034,39.062,37.598,31.250,50.781,38.574,0
10461.038,24.902,32.715,27.344,41.504,24.414,0
10461.042,34.668,31.738,32.227,45.410,29.785,0
10461.046,39.062,32.227,36.133,40.039,23.926,0
10461.050,39.062,30.273,32.715,32.227,11.719,0
10461.053,43.945,34.668,38.086,33.203,12.695,0
10461.057,42.480,30.273,39.062,28.320,20.996,0
10461.061,41.016,28.809,39.062,29.297,26.855,0
10461.065,40.039,35.645,39.551,35.645,24.414,0
10461.069,41.992,38.086,39.062,44.434,25.879,0
10461.073,36.621,31.738,38.086,44.434,28.809,0
10461.077,30.273,29.785,29.297,37.598,33.691,0
10461.081,33.203,33.203,24.902,34.668,36.133,0
10461.085,29.297,34.180,24.902,32.227,31.738,0
10461.089,32.227,40.527,29.297,37.598,25.879,0
10461.092,37.598,41.992,32.227,34.668,28.320,0
10461.096,32.715,38.574,26.855,26.367,35.645,0
10461.100,36.621,37.109,22.949,31.738,30.762,0
10461.104,38.086,35.645,27.344,43.945,30.273,0
10461.108,32.227,29.785,30.273,45.410,37.109,0
10461.112,34.180,27.832,26.367,40.039,30.762,0
10461.116,33.691,35.645,31.250,38.086,19.043,0
10461.120,35.156,37.598,37.109,37.598,18.555,0
10461.124,29.785,37.109,23.926,37.109,25.391,0
10461.128,30.762,30.762,15.625,34.668,41.016,0
10461.132,37.109,23.926,17.578,41.016,38.574,0
10461.135,32.227,32.227,20.508,49.316,17.578,0
10461.139,41.016,33.691,27.344,48.828,24.414,0
10461.143,52.246,31.738,36.133,48.828,35.645,0
10461.147,47.363,34.180,33.691,36.621,31.250,0
10461.151,38.574,32.715,25.879,29.785,21.484,0
10461.155,35.645,33.203,26.855,27.344,20.996,0
10461.159,36.621,31.738,30.762,37.598,31.250,0
10461.163,39.551,32.227,30.762,47.363,47.852,0
10461.167,38.086,32.715,32.227,35.645,51.758,0
10461.171,37.109,33.691,34.668,31.738,44.434,0
10461.175,40.527,35.645,32.227,36.621,53.711,0
10461.178,43.945,34.668,31.738,38.574,62.012,0
10461.182,41.992,35.645,38.574,39.551,63.477,0
10461.186,37.109,36.621,40.527,38.086,58.105,0
10461.190,39.551,34.668,37.598,35.645,51.270,0
10461.194,47.363,37.598,42.480,41.504,51.270,0
10461.198,42.480,31.738,47.852,41.992,55.176,0
10461.202,41.504,33.691,46.875,39.062,51.270,0
10461.206,49.805,44.434,48.340,38.574,44.922,2
10461.210,45.898,39.551,47.363,42.480,50.293,0
10461.214,40.039,33.203,45.410,41.504,52.246,0
10461.217,33.203,33.203,41.992,35.156,46.387,0
10461.221,30.273,32.715,41.504,35.645,36.133,0
10461.225,34.668,31.738,41.992,39.551,40.527,0
10461.229,36.133,30.273,41.016,41.504,49.316,0
10461.233,36.621,31.250,46.387,44.922,47.852,0
10461.237,41.992,31.250,52.246,38.574,55.664,0
10461.241,34.668,36.133,46.387,24.414,62.988,0
10461.245,32.715,41.016,37.598,23.926,59.082,0
10461.249,35.645,36.133,36.621,30.273,54.688,0
10461.253,32.227,34.180,37.109,35.156,52.734,0
10461.257,41.016,33.691,40.039,43.457,57.129,0
10461.260,42.969,30.762,36.133,38.086,66.895,0
10461.264,40.527,29.297,30.762,31.738,55.664,0
10461.268,40.039,31.738,33.691,35.645,42.969,0
10461.272,34.180,35.645,37.109,31.738,48.340,0
10461.276,32.715,37.109,42.969,31.250,46.387,0
10461.280,30.762,36.133,42.480,38.086,30.273,0
10461.284,30.273,34.180,36.621,31.250,26.367,0
10461.288,35.156,29.297,37.109,19.043,27.832,0
10461.292,37.598,23.926,34.180,24.414,18.555,0
10461.296,37.598,23.926,36.621,35.156,20.996,0
10461.300,30.273,29.297,32.715,29.785,20.508,0
10461.303,30.273,40.039,28.809,24.414,14.160,0
10461.307,35.645,39.062,37.598,36.621,27.344,0
10461.311,39.062,29.297,45.410,46.875,45.410,0
10461.315,39.551,32.227,41.992,36.133,43.457,0
10461.319,34.668,40.039,39.062,35.645,27.832,0
10461.323,35.156,41.504,39.062,37.109,27.832,0
10461.327,41.016,37.109,39.062,32.227,45.410,0
10461.331,41.504,35.645,41.504,42.969,56.152,0
10461.335,37.109,44.434,41.016,43.945,50.781,0
10461.339,34.668,43.457,40.527,38.086,44.922,0
10461.342,35.156,32.715,39.062,32.715,51.758,0
10461.346,35.645,30.762,40.039,38.574,60.059,0
10461.350,27.832,33.203,37.598,39.062,41.016,0
10461.354,20.508,30.273,36.133,31.738,27.832,0
10461.358,21.973,30.273,35.645,36.621,34.668,0
10461.362,26.855,29.785,32.715,39.551,38.086,0
10461.366,24.414,25.879,34.668,45.410,29.785,0
10461.370,25.879,28.320,39.062,41.504,24.902,0
10461.374,33.691,31.738,37.598,34.180,28.809,0
10461.378,29.785,25.391,36.621,34.180,30.762,0
10461.382,29.297,23.926,33.691,30.273,36.133,0
10461.385,30.762,28.320,29.785,30.762,33.691,0
10461.389,33.691,30.273,34.180,31.738,31.250,0
10461.393,42.969,35.645,33.203,27.344,34.668,0
10461.397,35.645,36.133,29.297,26.855,36.621,0
10461.401,24.902,35.645,32.227,37.598,28.809,0
10461.405,31.738,33.203,35.156,51.270,24.414,0
10461.409,38.086,29.785,29.785,41.016,33.203,0
10461.413,37.598,30.762,23.438,31.738,38.086,0
10461.417,37.109,31.738,24.902,33.691,36.621,0
10461.421,34.668,30.273,28.320,29.785,35.156,0
10461.425,34.180,34.180,32.227,29.297,38.574,0
10461.428,35.645,39.551,32.715,24.902,36.621,0
10461.432,32.227,36.621,28.809,20.996,24.414,0
10461.436,28.809,34.180,33.691,29.297,22.461,0
10461.440,25.391,31.250,35.156,41.992,30.273,0
10461.444,22.949,33.203,31.250,34.180,25.879,0
10461.448,20.996,35.645,31.738,23.926,15.137,0
10461.452,26.855,28.320,28.809,32.227,13.672,0
10461.456,32.715,29.297,28.809,27.344,23.438,0
10461.460,26.855,26.367,31.738,29.785,34.180,0
10461.464,23.438,23.438,33.203,43.945,44.434,0
10461.467,27.832,26.367,33.691,41.016,42.969,0
10461.471,33.691,25.391,36.133,35.156,35.156,0
10461.475,28.809,31.250,37.109,41.504,37.598,0
10461.479,23.926,33.203,33.691,35.645,39.551,0
10461.483,27.832,34.180,33.203,42.480,36.621,0
10461.487,28.320,39.551,32.715,44.434,28.809,0
10461.491,29.785,41.016,31.738,32.715,33.203,0
10461.495,31.738,40.527,32.227,34.180,30.762,0
10461.499,29.297,37.598,38.086,40.527,23.926,0
10461.503,35.156,32.715,43.457,29.297,20.996,0
10461.507,30.273,32.227,38.574,22.949,18.066,0
10461.510,25.391,37.598,38.574,33.203,31.738,0
10461.514,23.926,37.598,38.086,24.902,28.320,0
10461.518,20.996,37.109,35.645,28.320,14.648,0
10461.522,26.855,35.645,41.504,30.273,31.738,0
10461.526,29.297,37.109,42.480,22.949,41.504,0
10461.530,27.832,38.574,38.574,28.809,23.926,0
10461.534,27.832,37.598,38.574,30.762,12.695,0
10461.538,29.785,35.645,39.062,30.762,23.926,0
10461.542,26.855,32.227,36.133,39.551,42.969,0
10461.546,28.320,31.250,35.645,38.086,45.898,0
10461.550,33.203,29.785,37.109,28.809,25.391,0
10461.553,39.551,28.320,36.133,31.738,17.090,0
10461.557,36.133,23.926,39.062,36.133,30.273,0
10461.561,18.066,21.484,36.621,33.203,38.574,0
10461.565,21.484,18.066,38.086,39.551,43.945,0
10461.569,28.809,25.879,38.086,50.781,37.109,0
10461.573,28.809,41.016,26.855,45.898,32.227,0
10461.577,32.715,39.551,25.879,33.691,45.898,0
10461.581,33.691,33.691,28.809,27.832,47.852,0
10461.585,41.016,33.691,34.180,34.180,40.039,0
10461.589,44.434,38.574,34.180,40.039,40.039,0
10461.592,37.109,37.598,33.203,41.992,46.875,0
10461.596,34.180,26.367,38.086,41.504,41.992,0
10461.600,35.645,20.508,36.621,36.133,31.250,0
10461.604,34.668,27.832,36.621,30.762,31.738,0
10461.608,39.062,28.809,38.086,34.180,32.715,0
10461.612,43.945,28.320,33.203,42.969,34.668,0
10461.616,39.551,28.320,29.297,33.203,36.621,0
10461.620,28.809,28.809,23.926,24.414,26.367,0
10461.624,32.715,26.367,23.438,34.180,31.738,0
10461.628,34.180,25.879,24.414,37.598,44.434,0
10461.632,32.715,33.203,25.391,38.086,37.598,0
10461.635,32.715,35.156,31.250,36.133,19.043,0
10461.639,30.762,28.809,33.203,33.203,22.949,0
10461.643,30.762,29.785,32.227,33.691,41.016,0
10461.647,31.250,34.180,27.344,28.320,30.273,0
10461.651,39.062,32.227,27.832,27.344,10.254,0
10461.655,34.180,33.691,27.832,33.691,12.695,0
10461.659,34.668,31.738,22.949,32.715,18.555,0
10461.663,40.527,27.344,25.391,31.738,23.926,0
10461.667,29.785,22.949,29.785,29.785,23.438,0
10461.671,25.879,30.273,27.344,36.621,33.203,0
10461.675,31.250,38.086,26.855,41.992,49.805,0
10461.678,37.598,40.039,28.320,38.574,41.504,0
10461.682,35.156,38.086,25.879,46.387,27.344,0
10461.686,35.645,29.297,30.762,45.898,25.879,0
10461.690,36.621,25.391,35.156,26.855,22.461,0
10461.694,35.156,30.762,31.250,17.578,21.484,0
10461.698,30.762,36.133,26.855,30.762,27.344,0
10461.702,25.391,34.180,30.273,35.645,28.809,0
10461.706,36.621,34.668,31.738,31.250,29.297,0
10461.710,41.016,35.156,31.250,35.645,26.855,0
10461.714,29.785,31.738,28.320,36.133,13.672,0
10461.717,24.414,30.762,27.344,34.180,-3.418,0
10461.721,27.832,34.180,31.738,35.156,0.000,0
10461.725,35.156,34.180,31.738,29.785,13.184,0
10461.729,34.668,32.715,28.320,20.996,18.555,0
10461.733,33.691,32.227,28.320,26.367,15.137,0
10461.737,33.691,28.320,34.180,26.367,20.996,0
10461.741,25.391,22.949,41.016,22.461,45.410,0
10461.745,21.484,30.273,41.016,31.250,49.316,0
10461.749,25.879,37.109,34.180,30.273,31.738,0
10461.753,29.297,36.621,28.320,33.203,20.996,0
10461.757,34.668,34.668,29.785,45.898,36.621,0
10461.760,37.109,29.297,29.297,40.039,53.223,0
10461.764,39.062,34.180,26.367,28.809,41.016,0
10461.768,31.738,37.598,26.367,21.973,27.832,0
10461.772,29.297,38.574,28.320,28.320,31.250,0
10461.776,33.691,40.039,27.832,35.156,34.668,0
10461.780,29.785,31.738,27.344,35.645,37.109,0
10461.784,27.344,30.762,29.297,34.180,30.762,0
10461.788,24.902,34.668,24.414,33.203,19.531,0
10461.792,25.879,35.156,23.438,32.227,25.391,0
10461.796,24.414,32.227,25.391,32.227,30.762,0
10461.800,25.879,30.273,25.391,26.855,21.484,0
10461.803,31.738,33.691,30.273,24.902,17.578,0
10461.807,31.738,32.715,28.809,24.902,24.414,0
10461.811,40.039,29.785,31.738,23.438,30.762,0
10461.815,38.086,18.555,32.715,25.879,26.367,0
10461.819,36.621,22.949,27.344,25.391,16.602,0
10461.823,40.039,34.668,26.367,28.809,18.555,0
10461.827,39.551,39.062,24.414,32.227,34.668,0
10461.831,43.457,41.992,23.926,30.762,45.410,0
10461.835,44.434,44.434,29.785,39.551,45.898,1
10461.839,37.598,44.922,34.668,39.551,51.270,0
10461.842,37.109,37.598,32.715,24.414,45.410,0
10461.846,42.969,36.621,30.273,25.391,37.598,0
10461.850,46.875,38.086,28.809,33.691,34.180,0
10461.854,43.457,39.551,27.344,35.156,29.297,0
10461.858,41.016,40.527,31.738,41.504,29.785,0
10461.862,34.668,38.574,33.203,35.156,27.344,0
10461.866,25.391,32.715,27.832,34.180,21.484,0
10461.870,22.949,33.203,29.297,40.527,21.973,0
10461.874,22.461,37.109,31.738,32.715,29.297,0
10461.878,25.391,31.738,27.344,24.902,26.855,0
10461.882,23.926,24.902,23.926,36.133,23.438,0
10461.885,26.367,28.809,26.855,45.410,18.555,0
10461.889,26.855,30.762,28.809,31.738,14.160,0
10461.893,29.297,24.414,29.297,28.320,36.621,0
10461.897,30.762,25.879,26.367,39.551,51.758,0
10461.901,26.855,31.738,21.484,27.344,36.621,0
10461.905,36.133,34.180,24.902,18.066,16.113,0
10461.909,43.457,32.715,25.879,28.320,16.602,0
10461.913,43.457,28.320,23.438,36.621,29.297,0
10461.917,40.039,37.109,28.809,35.156,25.391,0
10461.921,30.273,41.016,30.273,32.227,18.066,0
10461.925,26.855,37.598,24.414,27.344,14.160,0
10461.928,31.738,39.551,20.996,30.273,20.020,0
10461.932,33.691,40.527,25.391,35.645,21.973,0
10461.936,35.645,36.133,29.297,25.391,8.789,0
10461.940,34.668,34.668,26.855,33.691,6.836,0
10461.944,36.133,36.133,24.414,41.016,19.531,0
10461.948,38.086,33.691,25.879,36.621,26.855,0
10461.952,32.715,32.715,29.785,42.480,26.855,0
10461.956,31.250,37.109,32.227,47.363,28.320,0
10461.960,33.203,38.574,29.297,43.457,39.062,0
10461.964,36.133,33.691,22.949,34.668,39.062,0
10461.967,31.250,32.715,25.879,37.598,30.273,0
10461.971,24.414,20.020,31.738,42.480,27.344,0
10461.975,30.273,20.020,28.809,43.457,30.762,0
10461.979,37.109,38.086,28.320,43.945,33.203,0
10461.983,38.086,39.062,28.809,41.016,37.109,0
10461.987,31.738,36.133,28.320,41.016,50.293,0
10461.991,31.738,37.598,27.832,46.387,48.828,0
10461.995,34.668,37.598,28.809,36.133,31.738,0
10461.999,32.715,39.062,29.785,35.645,25.391,0
10462.003,35.645,33.203,27.832,44.434,34.668,0
10462.007,43.457,28.809,33.203,41.504,52.246,0
10462.010,41.016,31.250,36.621,28.320,37.109,0
10462.014,29.297,30.273,30.273,24.414,10.254,0
10462.018,24.414,30.762,28.809,32.715,7.812,0
10462.022,27.344,30.273,30.273,31.250,22.461,0
10462.026,35.156,33.691,37.598,30.762,44.434,0
10462.030,37.598,38.086,35.645,33.203,44.434,0
10462.034,33.691,25.879,27.344,41.504,26.855,0
10462.038,29.785,19.043,30.273,47.852,16.602,0
10462.042,36.621,32.715,30.273,46.875,17.090,0
10462.046,40.527,38.086,29.297,44.434,27.832,0
10462.050,33.203,36.133,28.320,25.879,32.715,0
10462.053,32.227,35.645,29.785,22.461,27.832,0
10462.057,30.273,39.551,30.273,27.344,26.855,0
10462.061,37.598,38.086,27.344,24.902,36.621,0
10462.065,37.109,34.180,29.297,28.809,42.969,0
10462.069,26.367,33.691,31.738,38.086,34.180,0
10462.073,30.273,37.109,35.156,49.316,37.598,0
10462.077,33.691,40.039,36.621,38.086,52.246,0
10462.081,35.645,35.156,33.691,37.598,57.617,0
10462.085,36.621,33.203,34.668,45.898,56.152,0
10462.089,36.133,34.668,35.645,41.992,48.828,0
10462.092,37.109,31.250,34.668,41.504,58.594,0
10462.096,36.133,30.762,32.227,35.645,65.918,0
10462.100,41.016,38.086,33.203,41.016,61.523,0
10462.104,42.969,34.180,32.715,47.363,55.176,0
10462.108,45.410,32.227,28.320,41.504,47.852,0
10462.112,47.852,39.062,25.879,40.527,39.551,0
10462.116,48.828,40.039,24.414,36.621,26.367,0
10462.120,47.363,40.039,30.273,39.551,24.902,0
10462.124,40.039,41.504,29.297,45.898,37.598,0
10462.128,35.645,40.527,25.391,37.598,40.527,0
10462.132,39.551,39.551,27.344,32.227,32.227,0
10462.135,43.457,36.133,22.949,38.086,26.367,0
10462.139,39.551,34.180,21.973,34.180,38.086,0
10462.143,35.645,31.738,26.367,20.508,49.805,0
10462.147,36.621,31.738,28.320,25.879,41.992,0
10462.151,37.598,32.715,28.809,34.668,36.133,0
10462.155,41.016,34.180,34.180,42.969,36.133,0
10462.159,46.387,36.621,35.645,45.898,45.898,0
10462.163,45.898,32.227,31.250,43.945,50.293,0
10462.167,50.781,28.320,37.109,48.340,48.340,0
10462.171,53.223,29.785,41.992,41.016,54.199,0
10462.175,45.898,35.156,38.574,44.922,69.336,0
10462.178,44.922,33.691,36.621,50.293,81.543,0
10462.182,43.945,35.156,35.156,43.457,68.848,0
10462.186,42.480,41.504,32.227,42.480,56.641,0
10462.190,45.898,40.527,31.250,46.875,62.012,0
10462.194,54.688,36.133,33.691,56.152,69.336,0
10462.198,52.246,34.180,35.645,40.039,62.012,0
10462.202,39.062,35.156,36.133,26.367,49.805,0
10462.206,37.109,38.086,43.945,30.762,57.617,0
10462.210,38.574,39.062,45.898,27.832,57.129,0
10462.214,43.945,39.551,38.574,30.762,50.293,0
10462.217,39.062,39.062,34.668,21.484,42.969,0
10462.221,36.133,37.598,34.180,26.367,32.715,0
10462.225,44.434,38.086,37.109,38.574,38.086,0
10462.229,46.875,37.109,39.062,30.273,49.316,0
10462.233,36.133,38.574,41.016,26.367,52.734,0
10462.237,28.809,34.668,43.457,29.297,37.598,0
10462.241,34.180,27.832,47.363,31.250,33.203,0
10462.245,35.645,30.762,49.805,30.762,42.969,0
10462.249,41.992,26.367,45.410,34.668,42.480,0
10462.253,42.969,18.066,40.527,39.062,39.551,0
10462.257,37.598,26.367,41.016,39.062,50.293,0
10462.260,45.410,35.156,42.969,43.945,59.082,0
10462.264,50.781,36.621,41.504,42.480,53.223,0
10462.268,40.039,36.133,33.691,50.781,55.664,0
10462.272,31.738,32.715,32.227,53.711,53.223,0
10462.276,35.645,29.785,36.621,37.598,45.898,0
10462.280,40.039,32.715,38.086,36.621,49.316,0
10462.284,47.852,32.227,37.109,43.457,41.016,0
10462.288,43.945,31.250,41.504,46.875,43.457,0
10462.292,34.180,29.785,44.434,44.434,42.969,0
10462.296,34.180,28.809,45.898,45.898,32.715,0
10462.300,40.527,33.203,45.410,62.988,39.551,0
10462.303,37.109,30.762,34.668,52.246,34.668,0
10462.307,31.250,30.762,30.273,36.621,32.227,0
10462.311,38.574,32.715,33.691,29.297,36.133,0
10462.315,39.062,31.250,34.180,19.531,29.785,0
10462.319,37.598,32.715,35.645,27.344,26.855,0
10462.323,41.504,31.738,32.715,27.344,33.691,0
10462.327,41.992,30.762,31.738,33.691,45.898,0
10462.331,38.086,31.738,34.180,29.785,39.062,0
10462.335,31.738,29.785,29.297,20.996,14.160,0
10462.339,30.273,28.320,28.320,30.273,19.531,0
10462.342,33.203,28.320,30.762,35.645,37.109,0
10462.346,28.320,26.367,30.762,30.762,28.320,0
10462.350,21.484,29.297,28.320,27.344,12.207,0
10462.354,22.461,33.691,30.762,27.832,18.555,0
10462.358,25.391,32.227,34.668,25.879,22.461,0
10462.362,32.227,28.809,35.156,28.809,28.809,0
10462.366,29.297,27.832,38.086,38.086,35.645,2
10462.370,23.926,29.297,36.133,32.715,29.785,0
10462.374,24.902,30.273,33.203,31.250,34.668,0
10462.378,21.484,32.227,32.227,37.598,31.738,0
10462.382,21.484,32.227,34.180,35.156,27.344,0
10462.385,23.438,28.809,38.086,36.133,24.414,0
10462.389,20.996,27.832,36.133,41.016,21.484,0
10462.393,21.973,30.273,39.062,41.504,27.832,0
10462.397,29.297,32.715,39.551,34.180,26.367,0
10462.401,40.039,36.133,37.598,30.762,20.020,0
10462.405,35.645,36.621,36.621,31.250,24.414,0
10462.409,25.879,37.598,33.691,30.762,48.340,0
10462.413,26.855,39.551,36.133,33.203,46.875,0
10462.417,21.973,39.551,37.598,28.809,20.508,0
10462.421,20.508,35.156,34.180,31.738,19.531,0
10462.425,30.273,37.109,34.668,38.574,36.133,0
10462.428,31.738,39.062,36.133,33.203,41.504,0
10462.432,25.391,37.109,34.668,32.227,30.762,0
10462.436,25.391,38.574,32.227,24.902,22.461,0
10462.440,34.180,36.133,29.297,24.902,34.180,0
10462.444,41.016,41.016,27.832,25.879,45.898,0
10462.448,36.621,46.875,30.762,22.461,39.062,0
10462.452,24.414,42.969,29.785,28.809,16.602,0
10462.456,21.973,39.551,26.367,28.809,19.043,0
10462.460,22.949,42.969,30.273,21.973,31.738,0
10462.464,23.438,42.480,34.668,26.367,17.578,0
10462.467,25.391,41.992,35.645,34.180,8.301,0
10462.471,27.832,41.504,34.668,28.809,7.324,0
10462.475,26.367,38.574,32.715,30.762,9.277,0
10462.479,23.438,39.062,33.691,26.855,13.672,0
10462.483,28.809,38.086,33.691,23.438,21.484,0
10462.487,32.715,39.062,34.180,28.809,20.996,0
10462.491,29.785,39.062,37.109,36.621,27.344,0
10462.495,27.832,33.691,37.598,45.898,43.945,0
10462.499,33.691,35.645,37.109,43.945,46.387,0
10462.503,38.086,39.062,36.621,35.156,39.062,0
10462.507,32.715,39.551,40.527,27.344,45.410,0
10462.510,40.039,42.480,42.480,27.344,57.617,0
10462.514,49.805,44.922,42.480,38.086,55.176,0
10462.518,41.016,41.992,36.133,36.133,33.203,0
10462.522,41.992,38.086,31.738,28.320,27.832,0
10462.526,49.316,36.133,34.180,33.691,42.480,0
10462.530,44.922,41.016,31.738,29.297,43.945,0
10462.534,36.133,42.969,31.250,30.273,30.762,0
10462.538,36.621,43.945,30.762,42.480,13.184,0
10462.542,40.527,47.852,27.832,35.645,19.043,0
10462.546,32.227,44.922,27.832,23.926,29.785,0
10462.550,34.180,43.945,31.250,28.809,28.809,0
10462.553,36.133,42.969,34.180,33.203,33.691,0
10462.557,29.785,38.086,34.180,28.809,30.762,0
10462.561,34.668,36.621,35.645,30.762,28.320,0
10462.565,41.504,38.574,40.039,40.527,29.785,0
10462.569,37.109,37.109,37.598,41.016,29.297,0
10462.573,37.109,40.527,36.133,41.992,40.527,0
10462.577,39.062,43.945,34.180,44.922,54.199,0
10462.581,35.156,40.527,27.832,35.645,57.129,0
10462.585,29.297,35.156,22.461,30.273,41.992,0
10462.589,26.855,32.227,27.344,34.180,24.414,0
10462.592,26.367,35.645,30.762,29.297,33.203,0
10462.596,20.020,36.621,28.320,26.855,46.387,0
10462.600,24.414,35.645,26.367,28.320,36.133,0
10462.604,31.738,32.715,28.809,35.645,34.668,0
10462.608,35.156,32.715,35.645,42.480,51.270,0
10462.612,35.645,33.691,40.039,39.062,53.223,0
10462.616,36.133,38.086,37.598,40.527,51.270,0
10462.620,37.109,40.527,38.086,47.852,58.105,0
10462.624,36.133,38.574,39.062,56.152,54.688,0
10462.628,38.086,36.621,33.203,52.246,39.062,0
10462.632,35.645,34.668,30.762,44.922,38.574,0
10462.635,36.621,34.668,34.180,36.621,40.527,0
10462.639,36.621,31.738,36.621,27.832,22.949,0
10462.643,33.691,33.203,36.621,32.715,16.113,0
10462.647,35.156,34.180,38.574,29.785,22.461,0
10462.651,20.508,30.762,37.109,23.438,9.766,0
10462.655,23.438,27.344,33.203,30.273,5.859,0
10462.659,36.133,28.809,29.785,35.645,23.438,0
10462.663,27.832,32.227,28.320,27.344,30.273,0
10462.667,20.996,37.598,27.832,29.297,21.973,0
10462.671,25.879,37.109,29.297,38.086,21.973,0
10462.675,30.762,34.180,29.785,24.902,34.180,0
10462.678,31.738,37.109,31.738,27.832,30.762,0
10462.682,28.320,41.016,39.062,35.156,24.902,0
10462.686,25.879,41.504,40.527,22.949,26.855,0
10462.690,25.879,33.203,31.250,18.555,30.762,0
10462.694,27.344,24.902,28.320,26.367,39.062,0
10462.698,30.762,26.855,30.762,40.039,41.504,0
10462.702,27.344,30.762,32.715,36.621,35.156,0
10462.706,27.832,34.668,33.203,26.367,42.480,0
10462.710,34.668,37.109,34.668,36.621,57.129,0
10462.714,36.133,30.762,36.621,47.363,46.387,0
10462.717,34.180,32.715,38.574,49.316,39.551,0
10462.721,35.645,42.480,35.645,41.016,50.781,0
10462.725,39.551,38.086,31.250,45.410,62.500,0
10462.729,38.086,33.203,32.227,52.246,47.852,0
10462.733,32.227,34.668,29.297,36.621,19.043,0
10462.737,37.598,39.062,27.344,31.250,15.137,0
10462.741,33.691,40.039,23.926,25.879,20.020,0
10462.745,25.391,31.250,20.020,20.508,29.297,0
10462.749,31.738,29.297,23.926,27.832,40.039,0
10462.753,31.738,35.645,25.391,32.227,27.832,0
10462.757,32.227,41.016,26.855,32.227,24.414,0
10462.760,33.691,38.574,27.344,32.715,32.715,0
10462.764,38.574,33.203,22.949,37.598,33.691,0
10462.768,39.062,32.715,21.484,35.645,22.461,0
10462.772,36.133,29.785,22.949,30.762,10.254,0
10462.776,38.086,36.133,26.855,34.668,18.066,0
10462.780,31.738,46.387,28.320,21.484,24.414,0
10462.784,30.762,41.016,28.809,21.973,26.367,0
10462.788,38.086,37.598,35.156,39.551,29.297,0
10462.792,36.133,38.574,36.133,32.715,29.785,0
10462.796,34.180,35.156,31.738,29.297,27.344,0
10462.800,26.367,33.691,34.180,32.715,20.996,0
10462.803,15.625,31.250,33.691,24.902,12.207,0
10462.807,26.855,31.738,32.227,30.762,11.230,0
10462.811,30.762,35.156,31.738,37.598,23.926,0
10462.815,14.160,31.250,25.879,35.645,28.809,0
10462.819,18.066,31.738,25.391,40.527,25.391,0
10462.823,31.250,35.645,28.320,41.504,35.645,0
10462.827,34.668,33.691,25.879,33.203,35.156,0
10462.831,38.086,34.668,25.391,25.879,28.320,0
10462.835,34.180,38.086,30.762,26.367,23.438,0
10462.839,34.180,37.109,29.297,35.645,26.855,0
10462.842,42.969,36.133,25.391,36.621,38.086,0
10462.846,40.039,38.574,27.344,35.156,40.039,0
10462.850,32.227,40.527,31.738,41.504,32.227,0
10462.854,29.785,40.039,31.738,41.016,17.090,0
10462.858,30.273,38.574,30.273,35.645,20.508,0
10462.862,35.156,38.574,31.738,28.320,38.574,0
10462.866,34.180,38.574,32.227,35.645,33.691,0
10462.870,34.668,37.109,33.691,42.480,23.926,0
10462.874,33.203,29.785,35.156,35.645,27.832,0
10462.878,28.809,28.809,32.715,31.738,31.738,0
10462.882,27.832,31.250,28.320,33.203,20.996,0
10462.885,25.879,33.203,27.344,43.457,11.719,0
10462.889,26.367,34.180,29.785,42.969,20.020,0
10462.893,27.344,30.762,29.785,29.785,29.785,0
10462.897,30.273,34.180,29.785,28.320,37.109,0
10462.901,28.809,35.645,29.297,30.273,30.273,0
10462.905,25.879,34.180,32.715,33.203,30.273,0
10462.909,34.180,35.156,36.133,40.527,37.598,0
10462.913,33.691,37.598,35.156,34.668,35.156,0
10462.917,33.691,36.621,35.156,39.062,35.645,0
10462.921,35.156,31.250,32.715,45.898,33.203,0
10462.925,25.879,27.832,29.785,39.551,38.086,0
10462.928,31.738,29.297,30.762,35.645,46.387,0
10462.932,36.133,28.320,28.320,27.344,33.203,0
10462.936,25.879,29.297,22.949,30.762,23.926,0
10462.940,32.227,36.133,21.973,39.551,26.367,0
10462.944,43.945,38.086,21.484,43.457,29.297,0
10462.948,39.062,35.156,23.438,40.039,37.109,0
10462.952,35.645,37.598,25.391,34.668,24.414,0
10462.956,40.527,28.809,26.367,41.992,18.066,1
10462.960,36.621,24.902,28.809,32.715,26.367,0
10462.964,32.227,40.527,28.809,26.367,27.832,0
10462.967,29.785,41.016,26.367,30.273,27.832,0
10462.971,22.949,37.598,27.344,29.297,36.621,0
10462.975,21.973,35.645,29.297,37.598,40.039,0
10462.979,24.902,35.645,25.391,39.062,27.832,0
10462.983,27.832,41.992,22.461,31.738,26.855,0
10462.987,30.762,40.527,28.809,31.250,33.203,0
10462.991,39.551,36.621,32.715,36.621,28.809,0
10462.995,51.270,39.551,28.320,41.016,33.691,0
10462.999,52.734,41.016,25.391,36.621,39.551,0
10463.003,50.781,36.133,27.344,36.133,36.133,0
10463.007,53.223,34.180,26.855,42.480,42.969,0
10463.010,46.875,34.668,25.879,41.992,63.477,0
10463.014,38.574,34.180,24.414,43.457,56.641,0
10463.018,39.062,31.250,24.902,43.945,20.996,0
10463.022,30.762,32.227,28.320,42.480,20.996,0
10463.026,24.902,34.180,30.273,29.297,27.344,0
10463.030,25.391,31.250,31.250,22.949,23.926,0
10463.034,28.809,33.691,28.809,33.203,31.738,0
10463.038,34.180,32.715,27.832,30.762,31.738,0
10463.042,32.715,30.762,27.344,29.297,40.039,0
10463.046,30.273,34.668,25.391,38.574,45.410,0
10463.050,29.785,39.062,23.926,43.945,33.203,0
10463.053,28.809,37.109,24.414,41.016,25.391,0
10463.057,32.227,34.180,29.785,40.039,34.180,0
10463.061,34.180,38.574,29.297,38.574,43.457,0
10463.065,28.809,39.551,23.926,22.949,38.574,0
10463.069,22.461,37.109,21.484,20.508,29.297,0
10463.073,25.391,36.621,23.926,31.738,28.320,0
10463.077,29.785,32.227,25.391,31.738,30.762,0
10463.081,36.133,33.203,25.391,29.297,23.926,0
10463.085,29.297,35.645,23.926,27.344,16.602,0
10463.089,19.043,31.738,26.855,31.738,24.414,0
10463.092,31.250,32.715,30.762,42.969,31.250,0
10463.096,42.969,36.621,32.227,35.156,33.691,0
10463.100,41.504,38.086,34.180,26.855,35.645,0
10463.104,38.574,37.109,31.738,30.273,41.504,0
10463.108,37.598,35.156,25.391,33.691,45.898,0
10463.112,32.715,33.691,25.391,33.203,30.762,0
10463.116,39.551,34.668,31.738,33.691,25.879,0
10463.120,42.480,39.062,33.691,35.156,21.973,0
10463.124,34.180,40.039,33.203,35.156,20.996,0
10463.128,33.691,34.180,33.691,41.992,31.738,0
10463.132,34.668,34.668,34.668,41.016,34.180,0
10463.135,30.762,35.156,37.598,31.738,25.391,0
10463.139,26.367,30.273,36.133,39.551,20.020,0
10463.143,25.391,32.227,35.156,45.410,30.762,0
10463.147,30.273,34.668,36.621,34.180,43.457,0
10463.151,34.180,30.762,35.645,30.273,35.156,0
10463.155,29.785,31.250,33.203,33.691,20.020,0
10463.159,27.344,30.273,32.715,32.227,24.902,0
10463.163,23.926,26.367,37.598,30.273,41.504,0
10463.167,17.090,25.391,36.133,30.762,39.551,0
10463.171,18.555,27.832,30.273,28.320,30.273,0
10463.175,23.926,29.785,32.227,30.273,44.922,0
10463.178,27.344,31.250,33.691,36.621,43.457,0
10463.182,32.715,31.250,32.227,36.133,24.902,0
10463.186,39.551,32.715,31.250,35.156,35.645,0
10463.190,43.945,35.156,34.180,40.039,50.293,0
10463.194,44.434,34.180,35.645,36.621,42.480,0
10463.198,42.480,34.180,34.180,31.738,49.805,0
10463.202,44.922,37.598,34.668,36.621,58.594,0
10463.206,48.828,40.527,35.645,45.410,59.570,0
10463.210,49.316,41.016,39.551,42.969,68.359,0
10463.214,50.781,41.016,40.039,31.250,72.266,0
10463.217,53.711,43.945,38.086,40.039,70.801,0
10463.221,55.664,43.457,36.133,47.852,59.570,0
10463.225,50.781,40.039,35.156,43.457,60.059,0
10463.229,44.922,38.086,37.109,44.434,55.176,0
10463.233,44.922,36.621,31.738,41.992,40.039,0
10463.237,40.527,40.527,33.203,31.250,36.621,0
10463.241,25.879,42.480,37.109,20.508,37.109,0
10463.245,26.855,41.992,38.086,29.785,49.805,0
10463.249,34.668,40.039,37.598,27.344,44.922,0
10463.253,31.250,40.527,39.062,22.461,32.715,0
10463.257,30.762,41.504,40.527,35.645,47.363,0
10463.260,34.180,40.039,39.551,32.227,56.152,0
10463.264,32.227,41.016,42.480,31.250,51.270,0
10463.268,30.762,37.598,43.945,31.250,43.945,0
10463.272,33.203,34.668,38.574,26.855,44.922,0
10463.276,35.156,36.133,36.133,30.762,56.152,0
10463.280,35.156,42.480,38.086,30.273,58.105,0
10463.284,29.785,38.574,37.598,21.973,37.598,0
10463.288,21.484,33.691,30.273,28.809,18.066,0
10463.292,21.484,40.039,26.855,37.109,27.344,0
10463.296,26.855,41.016,28.320,19.043,46.875,0
10463.300,32.715,38.574,29.297,13.672,59.082,0
10463.303,29.297,41.016,34.668,25.879,43.457,0
10463.307,25.879,39.062,38.574,23.926,34.180,0
10463.311,30.762,33.691,34.180,21.973,40.527,0
10463.315,25.879,33.691,31.738,25.879,32.227,0
10463.319,22.461,35.156,33.691,23.438,25.879,0
10463.323,28.320,35.645,34.180,26.855,30.762,0
10463.327,26.367,33.691,32.715,28.320,34.180,0
10463.331,32.227,32.227,32.227,25.879,32.715,0
10463.335,38.086,34.180,33.691,40.039,24.902,0
10463.339,27.344,39.062,41.504,39.551,22.461,0
10463.342,22.949,37.109,43.945,27.832,29.297,0
10463.346,18.555,28.320,37.598,34.668,25.391,0
10463.350,20.996,25.391,38.574,33.203,18.555,0
10463.354,28.809,25.879,39.062,31.250,32.715,0
10463.358,23.438,29.297,42.480,32.715,41.504,0
10463.362,20.020,33.203,44.922,31.738,42.969,0
10463.366,25.391,36.621,44.922,40.527,41.992,0
10463.370,31.250,36.621,45.410,46.875,25.879,0
10463.374,26.367,35.156,45.410,34.180,23.438,0
10463.378,19.531,34.180,45.410,27.832,32.715,0
10463.382,20.996,30.762,45.410,37.598,35.645,0
10463.385,21.484,32.715,45.410,41.992,27.344,0
10463.389,24.414,35.156,49.316,41.016,32.227,0
10463.393,30.762,38.086,53.223,42.969,41.016,0
10463.397,31.738,37.109,53.711,35.645,41.016,0
10463.401,30.762,32.227,52.734,32.227,29.785,0
10463.405,36.621,36.133,49.805,39.551,24.902,0
10463.409,42.480,40.527,48.340,41.504,41.992,0
10463.413,41.016,40.039,50.781,41.016,41.504,0
10463.417,41.992,38.574,47.363,37.109,28.320,0
10463.421,46.387,40.039,44.922,36.133,31.250,0
10463.425,46.875,40.039,48.828,39.062,35.645,0
10463.428,39.551,37.598,50.293,40.039,28.809,0
10463.432,37.598,39.551,48.828,38.086,24.902,0
10463.436,39.062,39.551,44.922,40.039,15.137,0
10463.440,34.180,35.156,42.969,34.180,16.602,0
10463.444,37.109,36.621,42.969,28.809,31.738,0
10463.448,39.062,41.992,38.574,44.434,26.367,0
10463.452,31.738,41.016,34.668,41.016,16.113,0
10463.456,21.973,38.574,32.715,25.391,18.555,0
10463.460,21.484,39.062,33.691,29.785,32.715,0
10463.464,28.809,41.992,41.016,32.227,37.109,0
10463.467,24.902,41.992,39.062,24.902,26.855,0
10463.471,23.438,42.480,31.250,24.414,19.531,0
10463.475,19.531,36.133,26.855,34.180,21.484,0
10463.479,16.602,31.738,24.414,23.926,21.484,0
10463.483,23.438,35.645,27.344,15.137,12.207,1
10463.487,21.484,38.574,27.832,28.809,8.789,0
10463.491,18.555,41.992,31.250,28.809,24.414,0
10463.495,24.414,37.109,36.133,18.555,27.344,0
10463.499,22.949,30.273,35.156,22.461,10.742,0
10463.503,17.090,37.109,35.156,26.367,13.184,0
10463.507,27.344,45.410,37.109,32.715,29.785,0
10463.510,33.691,43.945,36.621,33.691,36.621,0
10463.514,32.715,39.551,36.133,24.902,32.227,0
10463.518,36.621,37.109,37.109,30.762,27.344,0
10463.522,37.109,37.598,33.203,41.504,26.367,0
10463.526,39.062,40.527,32.715,42.969,37.598,0
10463.530,34.180,38.574,37.598,29.785,41.504,0
10463.534,27.344,34.668,36.133,19.531,31.250,0
10463.538,23.438,32.227,28.320,25.391,24.902,0
10463.542,29.785,30.762,27.832,28.320,33.691,0
10463.546,38.574,32.227,31.250,30.762,37.598,0
10463.550,39.062,32.715,33.203,34.180,24.414,0
10463.553,22.949,32.227,34.668,30.762,15.137,0
10463.557,16.602,32.227,40.039,29.785,20.020,0
10463.561,30.762,33.203,46.387,36.621,21.484,0
10463.565,29.297,31.250,49.316,43.457,25.879,0
10463.569,22.949,29.297,46.875,34.180,27.832,0
10463.573,20.508,31.738,41.016,29.297,29.297,0
10463.577,22.461,31.738,38.086,40.527,33.203,0
10463.581,23.438,30.762,39.062,38.574,35.645,0
10463.585,22.949,29.785,45.898,28.809,29.785,0
10463.589,22.461,26.367,42.480,18.555,26.855,0
10463.592,22.949,27.832,39.062,24.902,34.180,0
10463.596,29.297,31.250,41.504,35.156,30.273,0
10463.600,24.902,35.156,39.062,30.762,24.902,0
10463.604,18.066,33.203,34.668,33.691,21.973,0
10463.608,23.438,34.668,32.715,38.086,25.879,0
10463.612,27.832,32.715,34.180,34.668,24.902,0
10463.616,24.414,22.461,30.273,30.762,24.902,0
10463.620,22.461,29.297,28.809,26.855,32.715,0
10463.624,23.926,35.156,29.785,18.066,28.809,0
10463.628,32.715,32.715,29.785,21.973,25.879,0
10463.632,34.180,37.109,31.738,26.367,27.832,0
10463.635,29.297,37.598,31.738,26.367,21.973,0
10463.639,32.227,36.621,31.250,34.668,25.879,0
10463.643,35.645,37.109,30.273,33.691,39.062,0
10463.647,40.527,34.180,29.785,23.926,41.992,0
10463.651,45.898,34.668,32.715,33.203,31.250,0
10463.655,45.410,37.598,34.180,42.969,24.902,0
10463.659,38.574,39.062,38.086,33.691,30.762,0
10463.663,32.227,38.574,36.621,35.156,37.109,0
10463.667,23.438,38.086,26.367,40.527,20.020,0
10463.671,15.625,37.109,17.578,31.738,13.672,0
10463.675,22.461,34.668,20.508,29.297,39.551,0
10463.678,25.879,26.367,22.949,35.645,45.898,0
10463.682,24.902,23.438,18.555,31.738,34.668,0
10463.686,23.438,30.273,18.066,31.250,22.461,0
10463.690,18.066,33.203,20.508,36.621,20.020,0
10463.694,24.414,34.180,26.855,42.480,34.668,0
10463.698,28.809,36.133,29.785,41.016,44.434,0
10463.702,29.297,37.598,26.855,35.156,27.344,0
10463.706,41.992,38.574,27.832,31.250,20.996,0
10463.710,39.062,36.621,25.879,29.297,38.086,0
10463.714,36.621,34.668,23.926,20.020,41.992,0
10463.717,38.574,33.203,19.531,15.137,28.320,0
10463.721,33.203,31.250,21.973,17.578,26.367,0
10463.725,30.762,31.250,29.785,12.695,32.227,0
10463.729,32.227,30.273,27.344,19.531,39.551,0
10463.733,38.574,33.691,28.320,30.762,42.969,0
10463.737,37.109,38.574,31.250,29.785,28.320,0
10463.741,32.715,37.109,28.320,31.250,16.113,0
10463.745,32.227,29.297,29.297,39.551,17.090,0
10463.749,33.203,32.715,29.785,31.738,13.184,0
10463.753,33.203,41.016,24.414,25.391,15.625,0
10463.757,36.621,37.598,23.926,31.738,25.879,0
10463.760,33.691,35.156,25.391,29.785,33.691,0
10463.764,25.391,36.621,29.297,27.832,36.133,0
10463.768,18.066,35.156,30.762,30.273,25.879,0
10463.772,14.648,33.691,29.297,25.879,20.020,0
10463.776,19.043,33.691,26.855,22.461,18.555,0
10463.780,16.602,32.227,25.391,22.949,17.578,0
10463.784,7.812,30.273,27.832,28.809,18.066,0
10463.788,8.301,28.320,30.762,32.227,9.277,0
10463.792,8.301,26.855,31.738,31.250,11.719,0
10463.796,6.348,26.367,28.809,31.738,24.902,0
10463.800,14.160,24.414,27.344,34.180,29.297,0
10463.803,23.438,23.926,26.855,29.785,30.762,0
10463.807,27.344,26.855,28.320,26.367,34.668,0
10463.811,34.668,26.855,24.902,22.949,42.480,0
10463.815,38.086,21.973,20.996,21.973,37.109,0
10463.819,33.203,21.484,26.367,30.762,21.973,0
10463.823,36.133,23.926,29.297,33.203,23.438,0
10463.827,40.527,27.832,27.832,26.855,35.156,0
10463.831,37.598,32.715,25.391,30.762,43.945,0
10463.835,39.551,32.227,27.832,38.574,33.691,0
10463.839,40.039,30.762,29.785,40.527,26.367,0
10463.842,37.598,29.785,29.785,42.480,35.645,0
10463.846,36.621,32.227,28.320,43.457,36.133,0
10463.850,31.250,33.691,25.879,40.527,23.926,0
10463.854,33.203,30.273,24.414,22.949,27.344,0
10463.858,35.156,28.320,19.531,24.902,32.715,0
10463.862,26.367,23.438,20.508,35.645,23.926,0
10463.866,25.391,25.391,24.902,33.203,20.508,0
10463.870,30.762,30.273,26.367,36.133,15.625,0
10463.874,31.738,28.320,29.297,41.016,25.879,0
10463.878,26.367,29.785,33.203,43.457,41.504,0
10463.882,26.367,31.738,35.156,46.875,42.969,0
10463.885,24.902,34.180,35.645,36.133,29.785,0
10463.889,26.855,34.668,33.691,28.809,35.645,0
10463.893,30.273,34.180,33.203,39.062,42.969,0
10463.897,25.391,31.738,30.273,36.133,25.879,0
10463.901,30.273,26.367,29.297,34.180,20.020,0
10463.905,34.180,27.832,28.809,31.250,23.438,0
10463.909,29.785,31.738,28.320,29.785,30.273,0
10463.913,28.320,32.227,29.297,31.738,34.668,0
10463.917,38.574,29.785,28.320,29.785,20.508,0
10463.921,43.945,29.297,28.320,29.297,9.277,0
10463.925,30.762,31.738,31.250,32.227,26.855,0
10463.928,28.320,31.738,29.297,34.180,36.133,0
10463.932,33.203,31.738,25.391,28.809,26.367,0
10463.936,34.180,35.156,25.391,27.832,27.344,0
10463.940,29.785,33.691,27.832,22.461,37.109,0
10463.944,35.645,36.133,32.227,20.020,27.344,0
10463.948,42.969,43.945,29.785,26.367,4.395,0
10463.952,34.180,40.039,26.367,27.344,-11.719,0
10463.956,30.273,34.180,26.855,24.902,-6.348,0
10463.960,38.086,37.598,29.297,21.484,8.789,0
10463.964,31.738,39.062,31.250,16.113,15.137,0
10463.967,20.996,34.668,29.785,16.113,16.113,0
10463.971,20.020,31.738,32.227,20.020,26.367,0
10463.975,20.996,35.156,33.203,24.414,24.414,0
10463.979,19.531,36.133,26.855,26.855,14.160,0
10463.983,20.996,33.691,25.391,20.996,12.207,0
10463.987,22.461,32.715,30.762,19.531,13.184,0
10463.991,14.648,30.762,33.203,24.414,17.090,0
10463.995,18.066,30.762,34.668,32.227,28.320,0
10463.999,19.531,28.320,35.645,36.621,32.715,0
10464.003,18.555,30.762,34.668,26.367,18.555,0
10464.007,24.414,38.086,31.738,30.273,15.625,0
10464.010,23.438,38.086,26.855,34.668,25.391,0
10464.014,29.785,39.551,29.297,29.297,31.250,0
10464.018,33.691,36.621,32.227,34.180,21.973,0
10464.022,24.902,33.203,31.738,38.086,18.066,0
10464.026,23.926,31.250,28.809,38.086,29.785,0
10464.030,27.832,31.250,26.855,37.109,36.133,0
10464.034,27.832,34.668,31.250,27.832,36.133,0
10464.038,35.645,39.062,31.738,29.297,42.969,0
10464.042,41.016,39.062,29.785,41.992,53.223,0
10464.046,36.621,28.809,31.250,40.039,40.527,0
10464.050,40.039,27.344,31.250,31.738,30.273,0
10464.053,40.527,33.203,34.668,35.645,40.527,0
10464.057,35.156,35.645,32.715,35.156,44.922,0
10464.061,32.227,36.621,29.297,29.785,56.641,0
10464.065,24.902,34.668,29.297,28.320,58.105,0
10464.069,19.043,33.203,31.250,32.227,25.391,0
10464.073,21.973,32.715,29.785,34.668,12.695,0
10464.077,30.273,36.133,24.414,27.344,19.531,0
10464.081,25.879,36.621,25.391,25.879,13.672,0
10464.085,15.625,32.227,23.438,26.855,19.531,0
10464.089,19.531,32.227,23.926,29.785,30.762,0
10464.092,24.902,38.574,27.832,34.668,25.391,0
10464.096,26.855,39.551,26.367,37.598,14.648,0
10464.100,22.461,35.645,25.879,29.297,16.113,0
10464.104,16.602,33.203,25.879,25.879,17.578,0
10464.108,22.461,31.250,22.949,28.809,21.973,0
10464.112,25.391,33.691,23.438,23.926,25.879,0
10464.116,24.902,37.598,23.438,23.438,16.602,0
10464.120,29.297,39.062,23.926,32.715,14.648,0
10464.124,29.785,34.668,27.344,44.434,25.391,0
10464.128,31.738,28.320,25.879,35.645,26.855,0
10464.132,32.715,26.855,23.438,17.090,25.391,1
10464.135,29.297,31.738,27.832,22.949,26.855,0
10464.139,35.645,34.668,27.832,33.203,28.809,0
10464.143,36.133,31.738,21.973,34.668,34.668,0
10464.147,27.344,34.668,23.926,32.227,42.969,0
10464.151,27.344,34.668,20.508,27.344,39.551,0
10464.155,32.715,32.715,18.066,26.855,29.297,0
10464.159,41.016,37.598,24.414,27.832,36.621,0
10464.163,43.945,38.086,27.832,40.527,46.875,0
10464.167,35.645,37.109,24.414,43.945,40.039,0
10464.171,28.320,36.621,22.949,30.762,31.250,0
10464.175,32.227,36.621,24.902,32.715,30.273,0
10464.178,38.086,37.109,22.949,33.203,30.273,0
10464.182,38.086,40.527,24.902,36.621,33.691,0
10464.186,31.250,37.109,28.809,41.016,32.227,0
10464.190,31.250,29.297,28.320,35.156,29.785,0
10464.194,33.203,28.809,24.902,26.855,27.832,0
10464.198,33.203,28.809,26.367,27.832,23.438,0
10464.202,36.133,31.250,35.156,41.504,33.691,0
10464.206,37.109,31.250,36.621,37.598,36.621,0
10464.210,36.133,25.391,22.949,32.715,29.785,0
10464.214,42.480,25.879,19.531,44.434,34.668,0
10464.217,52.246,29.297,22.461,48.828,31.738,0
10464.221,46.875,33.691,22.949,42.480,30.762,0
10464.225,36.621,39.062,28.809,33.203,41.992,0
10464.229,37.598,38.086,32.715,34.180,51.270,0
10464.233,41.016,35.645,29.785,45.898,40.527,0
10464.237,38.574,34.180,30.273,39.062,33.203,0
10464.241,36.133,36.621,31.250,24.414,45.898,0
10464.245,37.109,36.133,32.227,26.855,51.758,0
10464.249,33.203,31.738,33.203,32.227,48.828,0
10464.253,34.668,33.203,32.227,37.109,49.805,0
10464.257,38.086,34.180,31.250,38.574,53.711,0
10464.260,35.645,33.691,30.273,42.480,59.570,0
10464.264,34.668,30.762,30.273,32.715,53.223,0
10464.268,24.414,24.902,30.762,14.648,40.039,0
10464.272,22.461,23.926,35.645,19.531,47.852,0
10464.276,34.180,25.879,37.109,27.344,68.359,0
10464.280,34.180,21.973,35.156,22.949,68.848,0
10464.284,27.344,22.461,35.156,26.855,45.410,0
10464.288,25.391,31.738,37.598,30.762,43.945,0
10464.292,31.250,37.598,39.062,24.414,50.293,0
10464.296,38.086,40.527,36.621,20.508,33.203,0
10464.300,43.945,40.039,35.645,24.902,24.414,0
10464.303,41.016,39.062,34.668,24.414,22.461,0
10464.307,29.297,36.621,34.668,22.949,24.414,0
10464.311,22.461,34.180,37.598,21.484,35.645,0
10464.315,21.973,33.203,37.598,24.414,36.621,0
10464.319,18.066,32.227,34.668,34.668,30.762,0
10464.323,17.578,29.785,37.598,32.715,37.109,0
10464.327,20.996,28.809,34.668,24.902,44.922,0
10464.331,26.855,28.320,30.762,29.297,42.969,0
10464.335,27.832,27.832,36.133,32.227,36.621,0
10464.339,21.973,29.297,37.109,20.508,35.156,0
10464.342,20.020,31.738,35.156,17.578,36.621,0
10464.346,23.926,32.715,33.691,18.066,40.039,0
10464.350,27.832,34.668,35.156,19.043,41.016,0
10464.354,23.438,31.738,36.133,25.879,43.945,0
10464.358,17.578,28.809,31.738,27.344,51.758,0
10464.362,22.949,27.344,28.809,20.996,56.641,0
10464.366,27.832,26.367,29.785,29.297,55.664,0
10464.370,29.297,30.762,36.133,49.805,43.945,0
10464.374,31.250,31.250,39.062,45.410,47.363,0
10464.378,36.133,28.809,38.086,34.180,65.430,0
10464.382,42.480,29.785,35.645,32.227,58.105,0
10464.385,40.039,31.738,35.645,34.180,32.715,0
10464.389,46.387,31.738,35.156,41.016,31.738,0
10464.393,52.734,28.809,32.227,40.039,39.062,0
10464.397,39.062,28.320,34.180,35.645,27.344,0
10464.401,31.250,31.738,33.691,36.621,11.719,0
10464.405,34.668,33.691,35.645,45.898,19.043,0
10464.409,36.133,33.203,40.527,56.641,37.598,0
10464.413,33.691,31.250,39.062,49.805,37.109,0
10464.417,33.203,32.715,38.574,33.691,31.738,0
10464.421,33.691,33.691,41.016,34.668,24.414,0
10464.425,29.785,28.320,41.992,42.969,25.879,0
10464.428,30.273,31.738,44.922,45.410,39.551,0
10464.432,27.344,35.156,41.992,35.645,36.133,0
10464.436,28.320,32.715,36.621,28.809,25.879,0
10464.440,31.250,34.668,40.527,34.668,33.203,0
10464.444,26.855,38.086,38.086,38.574,43.457,0
10464.448,25.879,37.598,28.320,32.715,39.062,0
10464.452,27.344,32.715,27.344,32.227,37.598,0
10464.456,27.344,29.785,33.691,36.621,48.340,0
10464.460,30.762,31.250,36.621,38.086,56.641,0
10464.464,32.227,36.621,35.645,33.691,53.711,0
10464.467,32.227,36.621,32.227,24.902,41.504,0
10464.471,38.574,33.203,29.297,25.391,35.156,0
10464.475,38.574,35.645,33.203,38.574,39.551,0
10464.479,34.668,36.133,33.691,46.387,39.062,0
10464.483,31.250,32.715,37.598,36.621,33.691,0
10464.487,37.109,30.762,36.133,31.738,28.320,0
10464.491,40.527,30.762,27.344,39.062,36.133,0
10464.495,31.250,33.203,30.762,43.945,41.016,0
10464.499,24.902,32.715,36.133,44.434,27.344,0
10464.503,20.508,29.297,35.645,29.785,18.555,0
10464.507,25.879,31.250,36.621,21.484,28.809,0
10464.510,23.438,30.273,38.086,23.438,36.621,0
10464.514,17.578,27.832,37.109,25.391,28.320,0
10464.518,22.949,28.809,40.527,29.297,17.090,0
10464.522,28.320,29.785,42.969,35.645,12.207,0
10464.526,35.156,31.250,36.133,44.922,18.066,0
10464.530,40.039,31.250,33.691,47.852,33.203,0
10464.534,37.109,30.762,33.203,40.527,32.227,0
10464.538,32.227,35.156,36.621,46.387,42.969,0
10464.542,37.598,30.762,40.039,48.340,55.664,0
10464.546,39.062,26.367,34.668,42.480,47.363,0
10464.550,35.156,35.645,35.645,41.504,37.598,0
10464.553,41.016,38.086,35.645,46.387,39.551,0
10464.557,44.434,38.086,33.691,40.527,55.176,0
10464.561,39.062,40.527,36.133,33.691,43.945,0
10464.565,39.551,38.086,35.156,41.992,22.461,0
10464.569,40.527,32.227,37.598,37.598,17.578,0
10464.573,44.922,35.645,39.062,35.645,22.461,0
10464.577,47.363,42.480,34.668,35.645,32.715,0
10464.581,41.016,41.504,28.809,27.832,31.250,0
10464.585,32.715,37.109,27.832,21.484,19.531,0
10464.589,28.320,38.086,32.715,31.738,23.438,0
10464.592,27.832,38.574,37.109,33.691,22.461,0
10464.596,25.391,37.109,34.668,22.949,21.484,0
10464.600,30.273,37.109,34.180,26.855,25.391,0
10464.604,33.203,36.133,36.133,29.785,25.391,0
10464.608,32.715,37.109,34.668,40.527,40.039,0
10464.612,34.668,36.621,30.273,40.527,46.875,0
10464.616,38.086,39.551,30.762,33.691,35.645,0
10464.620,38.086,38.574,31.250,35.645,24.902,0
10464.624,35.645,30.762,26.855,30.762,27.344,0
10464.628,33.691,24.414,25.879,21.973,35.156,0
10464.632,35.156,21.484,23.926,28.809,26.855,0
10464.635,39.062,26.855,25.391,36.133,24.902,0
10464.639,33.203,30.762,27.832,37.598,32.227,0
10464.643,29.297,31.738,26.855,39.551,31.738,0
10464.647,39.062,30.273,28.320,31.738,26.855,0
10464.651,44.434,31.738,32.715,36.133,27.832,0
10464.655,42.969,32.227,30.273,39.062,29.785,0
10464.659,39.551,24.414,26.855,28.320,30.762,0
10464.663,39.062,25.391,27.832,33.691,31.738,0
10464.667,41.016,32.227,31.250,40.039,21.973,0
10464.671,36.621,31.250,27.344,25.879,16.113,0
10464.675,37.598,25.391,24.902,24.414,23.438,0
10464.678,36.133,29.297,26.367,37.109,32.227,0
10464.682,37.109,38.574,25.391,36.133,32.227,0
10464.686,54.199,40.039,30.273,23.926,23.926,0
10464.690,50.293,37.109,32.715,22.949,26.367,0
10464.694,29.785,33.203,33.691,30.762,31.738,0
10464.698,28.809,37.109,36.133,30.273,35.645,0
10464.702,30.762,35.645,37.109,25.879,32.227,0
10464.706,32.227,30.273,35.156,31.738,27.832,0
10464.710,46.875,34.180,35.156,35.645,36.133,0
10464.714,44.434,36.621,37.109,29.297,41.016,0
10464.717,36.133,34.180,39.062,32.227,40.039,0
10464.721,33.691,31.250,37.109,38.086,40.527,0
10464.725,31.738,32.227,31.738,31.738,37.109,0
10464.729,33.691,30.273,32.227,26.855,34.668,0
10464.733,31.250,26.855,30.762,28.320,25.879,0
10464.737,29.297,28.809,30.273,31.250,16.602,0
10464.741,34.180,29.785,32.715,31.738,30.273,2
10464.745,39.551,31.738,34.180,32.227,39.062,0
10464.749,36.133,31.250,34.180,29.785,19.531,0
10464.753,27.832,25.879,30.762,28.320,4.883,0
10464.757,29.785,26.855,27.344,31.250,15.137,0
10464.760,39.551,27.832,30.762,28.320,24.902,0
10464.764,41.504,31.250,36.621,30.762,34.668,0
10464.768,30.273,34.180,32.715,38.574,27.832,0
10464.772,27.832,34.668,31.250,33.691,22.949,0
10464.776,36.133,32.715,31.738,25.879,32.715,0
10464.780,42.969,32.227,30.762,19.043,29.785,0
10464.784,40.039,33.203,31.738,19.043,15.137,0
10464.788,27.832,30.273,33.691,29.297,12.695,0
10464.792,30.273,28.809,35.156,25.879,30.273,0
10464.796,38.574,28.320,34.668,29.297,41.992,0
10464.800,39.062,29.297,29.297,34.180,31.738,0
10464.803,36.621,32.227,25.391,23.926,14.648,0
10464.807,30.762,40.039,23.926,19.531,23.926,0
10464.811,32.715,43.457,21.973,26.855,42.969,0
10464.815,34.668,39.062,24.902,29.297,28.809,0
10464.819,30.762,36.133,25.391,34.668,7.812,0
10464.823,32.715,33.691,27.344,34.180,14.160,0
10464.827,33.203,32.715,29.297,28.809,23.438,0
10464.831,36.133,34.668,24.902,30.762,28.809,0
10464.835,35.156,30.762,21.484,30.273,23.926,0
10464.839,36.133,32.715,27.344,38.574,27.832,0
10464.842,39.062,35.156,31.250,39.551,49.316,0
10464.846,34.668,32.227,29.785,26.855,43.457,0
10464.850,39.062,34.180,30.762,26.855,19.043,0
10464.854,41.016,34.180,29.785,34.668,17.578,0
10464.858,40.527,33.203,29.297,34.180,30.273,0
10464.862,39.551,34.180,30.273,31.250,30.762,0
10464.866,35.156,36.621,32.715,35.156,26.855,0
10464.870,30.273,36.621,30.273,35.156,25.391,0
10464.874,32.715,34.668,28.809,33.203,31.250,0
10464.878,38.086,34.180,31.738,31.250,37.109,0
10464.882,41.016,34.180,33.691,32.715,30.762,0
10464.885,37.598,34.180,33.203,32.715,16.602,0
10464.889,31.250,32.715,28.320,27.832,16.113,0
10464.893,37.598,32.227,30.273,27.832,22.949,0
10464.897,45.898,36.133,37.598,33.203,31.738,0
10464.901,44.922,34.180,32.715,34.180,25.391,0
10464.905,34.180,30.762,25.391,41.504,15.625,0
10464.909,29.297,28.809,22.949,32.227,22.461,0
10464.913,31.738,27.832,26.367,24.902,31.250,0
10464.917,26.367,31.250,26.367,25.391,31.250,0
10464.921,20.996,30.273,19.531,20.508,24.414,0
10464.925,25.879,27.344,17.578,25.391,24.414,0
10464.928,29.785,27.832,21.973,29.297,25.879,0
10464.932,28.809,28.320,26.855,31.738,19.043,0
10464.936,26.855,27.832,23.926,30.273,24.414,0
10464.940,25.391,25.879,20.508,33.203,39.551,0
10464.944,28.809,25.879,23.926,28.320,34.180,0
10464.948,32.227,29.297,23.926,35.156,23.926,0
10464.952,32.715,26.367,27.832,47.363,22.949,0
10464.956,28.809,22.949,29.785,34.180,32.715,0
10464.960,27.832,24.902,26.855,21.973,32.227,0
10464.964,30.762,26.367,26.855,20.020,24.902,0
10464.967,33.691,28.320,27.832,37.109,21.973,0
10464.971,26.367,26.855,28.320,38.574,23.926,0
10464.975,21.973,22.949,26.855,22.949,40.527,0
10464.979,24.414,22.949,25.879,27.344,50.781,0
10464.983,23.438,22.949,29.297,42.480,31.250,0
10464.987,23.926,21.973,33.203,45.410,20.020,0
10464.991,27.832,22.461,34.668,38.574,38.086,0
10464.995,27.344,24.902,33.203,40.039,44.434,0
10464.999,25.391,23.438,32.715,44.922,38.086,0
10465.003,26.855,22.949,34.180,41.504,38.574,0
10465.007,30.762,24.414,36.621,35.645,39.551,0
10465.010,33.691,26.855,36.133,32.715,35.156,0
10465.014,29.297,27.344,32.715,30.762,32.715,0
10465.018,25.879,26.367,26.367,32.227,20.508,0
10465.022,22.949,27.832,23.926,32.715,13.184,0
10465.026,27.832,32.715,29.785,27.344,26.855,0
10465.030,31.250,34.180,35.156,23.438,35.645,0
10465.034,30.273,27.344,37.598,35.156,30.273,0
10465.038,30.273,28.809,41.016,43.945,16.113,0
10465.042,20.020,31.250,38.086,21.484,9.766,0
10465.046,29.297,31.738,36.621,12.207,20.508,0
10465.050,34.180,31.738,37.109,19.043,24.902,0
10465.053,20.996,28.809,35.645,23.438,20.020,0
10465.057,24.902,29.785,35.645,27.832,33.203,0
10465.061,31.738,30.762,39.551,24.902,49.805,0
10465.065,39.551,33.203,41.016,35.645,47.852,0
10465.069,42.969,35.156,37.598,37.109,40.527,0
10465.073,37.598,35.645,35.645,30.762,42.480,0
10465.077,37.109,35.645,33.203,33.203,49.805,0
10465.081,41.992,35.156,31.738,33.691,49.805,0
10465.085,41.992,33.691,31.250,35.645,51.270,0
10465.089,39.551,29.297,34.180,38.086,62.988,0
10465.092,40.527,28.809,36.133,42.480,71.289,0
10465.096,40.039,34.180,32.227,41.016,66.406,0
10465.100,38.086,35.645,31.250,42.480,56.641,0
10465.104,31.738,32.227,30.273,47.852,41.504,0
10465.108,31.738,31.250,24.902,54.688,35.645,0
10465.112,33.691,34.668,26.855,42.969,38.086,0
10465.116,36.621,36.133,31.738,33.691,40.039,0
10465.120,50.781,33.691,35.156,41.992,32.715,0
10465.124,51.758,31.738,36.621,42.480,35.645,0
10465.128,34.668,32.715,34.180,36.133,41.016,0
10465.132,24.902,31.738,32.715,37.109,35.156,0
10465.135,30.762,31.738,32.715,40.527,33.203,0
10465.139,32.227,32.227,35.156,43.457,32.715,0
10465.143,30.273,31.250,35.156,36.621,29.297,0
10465.147,39.551,33.203,31.738,27.344,34.668,0
10465.151,40.039,33.203,29.785,36.133,35.156,0
10465.155,37.598,31.250,30.762,41.992,26.855,0
10465.159,35.645,23.926,29.785,33.691,31.250,0
10465.163,23.926,20.508,27.832,33.691,38.574,0
10465.167,24.902,26.855,30.762,28.809,26.855,0
10465.171,31.738,23.438,30.762,22.949,16.113,0
10465.175,29.297,26.367,29.785,38.086,26.367,0
10465.178,31.738,34.668,31.250,34.668,36.133,0
10465.182,30.273,29.785,29.297,24.902,38.574,0
10465.186,22.461,29.297,26.855,28.809,24.414,0
10465.190,24.414,34.668,28.809,32.227,8.789,0
10465.194,32.227,34.180,30.762,38.086,13.672,0
10465.198,36.133,34.668,31.738,42.969,24.414,0
10465.202,32.715,35.156,31.738,34.668,33.691,0
10465.206,32.715,35.645,32.715,30.273,40.039,0
10465.210,34.180,33.691,30.273,38.086,30.762,0
10465.214,38.574,33.691,30.762,40.527,27.344,0
10465.217,40.039,35.156,34.180,31.250,21.484,0
10465.221,42.480,35.645,34.668,26.855,11.719,0
10465.225,47.852,35.156,39.551,38.574,19.531,0
10465.229,39.551,30.762,38.086,41.016,22.461,0
10465.233,30.762,29.297,35.156,38.574,21.484,0
10465.237,31.738,27.832,34.668,40.527,19.531,0
10465.241,30.762,27.344,35.156,27.832,20.508,0
10465.245,30.762,27.344,36.621,22.949,22.461,0
10465.249,31.738,28.809,35.156,30.273,25.879,0
10465.253,28.809,31.738,33.691,27.344,31.250,0
10465.257,32.227,29.785,34.668,26.367,32.715,0
10465.260,32.227,30.273,34.180,28.809,36.621,0
10465.264,26.855,31.738,32.715,19.531,49.316,0
10465.268,29.785,25.879,33.203,17.090,45.898,0
10465.272,33.691,24.902,35.156,27.832,37.598,0
10465.276,36.621,28.809,37.109,30.273,42.969,0
10465.280,37.109,32.227,40.039,30.273,52.734,0
10465.284,34.668,32.227,43.945,25.879,53.711,0
10465.288,35.156,32.227,42.480,30.762,43.457,0
10465.292,39.062,33.691,41.504,31.250,47.363,0
10465.296,32.227,26.855,38.574,27.344,70.801,0
10465.300,32.227,28.320,39.062,35.156,76.660,0
10465.303,34.668,32.227,39.062,31.738,47.852,0
10465.307,34.180,32.715,36.621,34.180,44.434,0
10465.311,39.062,34.668,37.109,38.574,47.363,0
10465.315,41.016,34.180,33.691,28.320,36.133,0
10465.319,44.922,33.691,34.180,28.320,30.762,1
10465.323,42.969,34.180,37.109,35.645,38.086,0
10465.327,33.691,33.691,37.598,30.762,47.852,0
10465.331,39.062,31.250,39.062,26.367,49.805,0
10465.335,42.969,30.273,34.180,27.832,42.969,0
10465.339,37.109,32.715,29.785,29.297,39.551,0
10465.342,40.039,36.621,34.180,33.203,50.781,0
10465.346,44.434,38.574,32.715,34.668,54.688,0
10465.350,49.316,32.715,30.762,35.645,46.875,0
10465.354,48.828,33.691,34.668,43.945,53.223,0
10465.358,42.969,39.551,34.668,38.574,59.082,0
10465.362,43.945,40.527,34.180,34.668,49.316,0
10465.366,46.875,40.039,38.086,31.738,43.945,0
10465.370,42.480,38.086,31.250,22.949,40.527,0
10465.374,43.945,38.574,28.809,28.320,47.852,0
10465.378,41.016,36.133,33.203,36.133,45.898,0
10465.382,35.645,36.133,32.715,33.203,41.016,0
10465.385,39.062,30.762,34.180,31.738,38.574,0
10465.389,38.574,27.344,34.668,36.133,40.039,0
10465.393,34.668,31.738,29.785,38.574,47.363,0
10465.397,33.203,32.715,28.320,36.133,46.387,0
10465.401,37.109,36.133,35.645,33.203,47.852,0
10465.405,33.691,37.109,38.086,37.598,45.410,0
10465.409,35.645,32.715,38.086,34.180,44.434,0
10465.413,35.156,31.250,35.645,29.297,44.434,0
10465.417,25.391,31.250,32.227,28.809,33.691,0
10465.421,28.320,30.273,31.250,22.949,28.320,0
10465.425,31.738,28.320,31.738,27.832,40.527,0
10465.428,36.621,28.809,34.180,32.227,49.316,0
10465.432,39.062,33.691,38.086,34.180,47.363,0
10465.436,33.691,32.227,41.016,47.852,39.551,0
10465.440,36.621,34.180,36.621,50.293,27.832,0
10465.444,34.180,37.598,34.668,38.086,21.484,0
10465.448,25.879,32.715,36.133,32.715,22.949,0
10465.452,24.414,27.832,33.203,24.902,27.344,0
10465.456,26.367,28.809,30.762,23.926,41.016,0
10465.460,40.039,33.691,31.250,36.621,43.945,0
10465.464,41.992,35.156,29.297,35.645,30.762,0
10465.467,39.062,39.062,30.762,30.273,15.137,0
10465.471,42.969,41.992,36.621,35.645,9.277,0
10465.475,35.645,39.551,39.551,40.039,23.438,0
10465.479,31.738,36.621,33.691,46.875,28.809,0
10465.483,43.457,36.133,29.297,50.293,22.461,0
10465.487,42.480,38.574,31.250,33.691,20.508,0
10465.491,27.344,38.086,30.762,22.461,25.391,0
10465.495,27.832,35.156,32.227,32.227,32.227,0
10465.499,28.809,28.809,35.645,41.016,28.320,0
10465.503,24.414,27.832,37.109,32.715,20.020,0
10465.507,29.785,35.645,37.109,22.949,27.344,0
10465.510,37.598,38.574,36.621,31.738,32.715,0
10465.514,45.898,38.574,41.992,42.969,29.785,0
10465.518,43.457,41.016,42.480,39.551,23.926,0
10465.522,29.297,39.062,34.180,30.762,18.555,0
10465.526,23.438,32.715,31.738,30.762,20.996,0
10465.530,31.250,28.809,37.598,33.691,30.762,0
10465.534,31.250,30.762,36.133,30.273,39.062,0
10465.538,28.809,31.738,31.250,24.414,33.691,0
10465.542,36.621,28.809,31.250,32.227,30.273,0
10465.546,40.039,29.785,30.273,35.645,36.133,0
10465.550,35.156,28.320,32.227,34.668,36.621,0
10465.553,30.762,28.320,34.180,30.762,44.922,0
10465.557,36.621,32.715,31.250,28.809,47.363,0
10465.561,42.480,33.691,25.879,35.645,29.297,0
10465.565,39.062,32.227,27.832,32.715,30.762,0
10465.569,33.691,34.180,33.691,35.645,41.992,0
10465.573,28.320,35.156,35.156,43.457,47.363,0
10465.577,33.203,29.785,37.109,45.410,57.617,0
10465.581,40.039,29.297,33.691,39.062,57.617,0
10465.585,37.598,33.691,28.809,33.691,36.133,0
10465.589,36.133,37.109,31.250,37.598,29.297,0
10465.592,36.133,38.574,33.203,41.016,40.527,0
10465.596,38.574,35.645,28.809,39.062,38.086,0
10465.600,40.527,34.180,30.273,36.621,28.320,0
10465.604,40.527,29.297,33.691,40.039,26.367,0
10465.608,43.457,28.320,32.715,36.133,33.691,0
10465.612,39.062,33.203,30.762,27.832,35.156,0
10465.616,32.715,36.621,30.762,37.109,30.273,0
10465.620,30.762,37.598,37.598,41.992,25.391,0
10465.624,30.273,33.203,36.621,31.250,20.996,0
10465.628,29.785,29.785,27.832,27.832,26.367,0
10465.632,29.297,31.250,22.949,30.273,27.832,0
10465.635,25.879,32.715,23.926,29.297,28.320,0
10465.639,31.250,31.250,25.879,28.809,39.551,0
10465.643,36.133,33.691,27.344,27.832,39.551,0
10465.647,34.180,36.133,32.227,20.020,40.039,0
10465.651,29.297,35.645,32.227,18.555,46.875,0
10465.655,30.273,34.180,29.785,26.855,49.805,0
10465.659,32.227,31.738,26.855,28.809,43.457,0
10465.663,32.227,30.762,25.879,34.668,42.480,0
10465.667,30.762,30.762,30.273,32.715,45.898,0
10465.671,23.926,30.762,31.738,38.574,44.434,0
10465.675,25.391,31.738,28.320,32.227,48.340,0
10465.678,27.832,29.785,27.832,13.672,39.062,0
10465.682,32.227,30.273,31.250,23.926,31.738,0
10465.686,31.250,30.762,27.832,24.414,28.809,0
10465.690,23.926,27.344,23.926,15.137,31.250,0
10465.694,32.227,27.344,25.879,24.902,38.086,0
10465.698,44.434,26.367,26.367,31.738,30.762,0
10465.702,40.039,22.949,24.414,25.391,29.785,0
10465.706,23.926,17.578,22.949,33.203,28.320,0
10465.710,13.672,20.020,25.879,41.016,21.973,0
10465.714,15.137,28.320,27.344,29.297,19.531,0
10465.717,16.602,29.785,21.973,23.438,18.555,0
10465.721,21.973,27.832,20.996,24.414,22.461,0
10465.725,26.367,25.879,23.438,28.320,23.926,0
10465.729,23.926,29.785,27.344,24.902,32.227,0
10465.733,23.438,33.203,32.227,24.414,36.133,0
10465.737,24.414,29.297,31.738,30.762,26.367,0
10465.741,26.367,26.855,30.273,26.855,34.180,0
10465.745,20.020,23.926,25.879,20.508,35.645,0
10465.749,20.508,20.020,20.020,29.297,25.879,0
10465.753,30.273,19.531,24.414,30.273,24.902,0
10465.757,32.715,23.926,27.344,33.203,34.180,0
10465.760,38.574,25.391,25.879,32.715,37.109,0
10465.764,41.016,19.043,26.855,20.996,29.785,0
10465.768,41.016,20.996,28.320,30.273,18.555,0
10465.772,41.504,26.855,25.391,33.691,14.648,0
10465.776,39.062,28.320,28.320,36.621,29.297,0
10465.780,40.039,28.809,33.203,35.645,40.039,0
10465.784,45.410,29.297,31.250,26.855,28.320,0
10465.788,42.480,27.344,29.785,27.344,22.949,0
10465.792,38.086,26.855,29.297,36.133,23.438,0
10465.796,39.062,31.250,29.297,35.645,15.137,0
10465.800,34.668,28.320,26.367,26.367,14.648,0
10465.803,36.621,28.809,25.391,33.203,16.113,0
10465.807,42.969,32.227,28.320,39.062,27.344,0
10465.811,43.945,32.227,32.227,41.016,45.410,0
10465.815,44.434,33.691,31.738,48.340,47.363,0
10465.819,43.945,34.668,30.762,43.945,29.785,0
10465.823,43.457,31.250,33.691,36.621,31.250,0
10465.827,41.016,28.320,35.156,41.016,49.805,0
10465.831,42.480,32.227,38.086,38.086,50.781,0
10465.835,44.922,35.645,41.016,38.574,34.668,0
10465.839,47.363,35.645,36.133,43.457,30.762,0
10465.842,39.062,34.180,31.250,39.551,39.062,0
10465.846,33.203,29.297,24.902,27.344,38.086,0
10465.850,35.645,29.785,26.855,29.785,30.762,0
10465.854,33.203,29.785,31.738,35.156,18.066,0
10465.858,27.832,25.879,28.320,28.320,13.672,0
10465.862,28.809,24.414,26.855,27.832,13.184,0
10465.866,27.344,23.926,30.762,28.320,15.137,0
10465.870,23.926,23.438,38.574,34.180,24.414,0
10465.874,24.414,22.949,38.086,29.785,26.367,0
10465.878,25.879,23.438,29.297,16.602,18.066,0
10465.882,30.273,28.320,32.715,31.738,24.414,0
10465.885,27.344,28.809,35.156,34.180,26.855,0
10465.889,28.320,29.297,27.832,21.484,25.879,0
10465.893,27.344,30.762,21.484,22.949,36.133,0
10465.897,26.855,29.297,21.484,22.949,39.551,0
10465.901,28.320,28.320,24.414,22.949,39.062,0
10465.905,24.414,25.391,25.391,29.785,36.621,0
10465.909,30.762,26.367,28.809,40.039,34.668,0
10465.913,34.668,27.344,30.762,41.992,31.250,0
10465.917,26.367,26.855,27.832,18.066,24.902,0
10465.921,25.879,25.879,28.809,7.324,27.344,0
10465.925,28.320,24.414,29.785,22.949,38.574,0
10465.928,30.273,25.879,32.715,28.320,47.363,0
10465.932,29.785,25.879,29.785,20.508,35.645,0
10465.936,26.855,21.484,26.367,18.066,23.438,0
10465.940,27.832,21.484,32.227,28.320,35.645,0
10465.944,31.738,26.367,31.250,34.180,39.062,0
10465.948,34.668,30.273,33.691,28.809,36.133,0
10465.952,33.691,33.691,35.645,33.691,28.809,0
10465.956,32.227,37.109,31.250,36.133,25.879,0
10465.960,34.668,36.621,31.738,30.273,28.320,0
10465.964,41.504,32.715,33.203,39.062,31.250,0
10465.967,40.039,30.273,29.785,42.969,32.227,0
10465.971,36.621,30.273,27.344,30.273,24.902,0
10465.975,39.551,32.715,30.762,31.250,26.855,0
10465.979,35.645,31.250,31.738,41.016,41.016,0
10465.983,26.855,28.320,29.785,40.039,43.945,0
10465.987,25.879,26.367,27.344,37.109,35.156,0
10465.991,35.156,26.855,23.438,36.133,31.250,0
10465.995,38.086,29.297,21.484,32.715,24.414,1
10465.999,29.297,33.203,23.926,29.785,19.531,0
10466.003,26.855,32.715,26.855,29.297,26.367,0
10466.007,27.832,29.297,29.785,26.855,29.785,0
10466.010,33.691,29.297,26.367,25.879,25.879,0
10466.014,33.203,26.855,21.973,33.691,23.438,0
10466.018,30.273,25.879,20.508,31.250,4.395,0
10466.022,33.691,29.297,23.438,22.949,2.930,0
10466.026,29.785,30.273,27.832,20.020,16.113,0
10466.030,23.438,29.785,27.344,28.320,25.391,0
10466.034,22.461,33.203,29.785,33.203,25.391,0
10466.038,25.391,33.203,31.738,23.926,17.090,0
10466.042,31.250,30.762,29.297,23.926,22.949,0
10466.046,31.250,26.367,26.855,23.926,30.273,0
10466.050,31.250,28.809,28.809,26.367,27.832,0
10466.053,38.086,28.809,32.715,41.992,21.484,0
10466.057,42.969,25.391,33.203,38.086,31.738,0
10466.061,41.992,30.273,33.691,24.902,46.387,0
10466.065,47.852,37.598,36.621,30.762,45.410,0
10466.069,48.340,39.062,35.645,37.598,45.410,0
10466.073,39.551,36.621,27.832,35.645,51.758,0
10466.077,42.480,38.574,23.438,33.691,52.246,0
10466.081,41.504,37.598,22.461,39.062,48.828,0
10466.085,39.062,34.180,25.391,44.922,50.781,0
10466.089,35.645,33.691,27.832,39.551,46.875,0
10466.092,34.668,30.762,31.738,41.992,37.109,0
10466.096,40.527,29.785,34.668,43.457,24.902,0
10466.100,39.551,28.809,35.645,35.156,14.160,0
10466.104,41.992,27.344,37.598,35.645,18.555,0
10466.108,43.945,27.832,35.645,31.250,22.949,0
10466.112,41.992,30.273,32.227,40.039,21.973,0
10466.116,42.969,34.668,33.691,46.387,22.949,0
10466.120,32.715,30.762,31.250,23.926,26.855,0
10466.124,29.785,32.715,28.809,21.484,40.039,0
10466.128,35.156,37.598,31.250,33.691,35.645,0
10466.132,38.086,32.715,30.762,31.738,10.254,0
10466.135,41.992,33.691,27.832,35.156,0.000,0
10466.139,42.969,34.180,28.320,38.574,19.531,0
10466.143,33.203,27.344,32.227,28.320,37.598,0
10466.147,31.250,21.973,32.715,33.203,36.133,0
10466.151,40.039,25.879,30.762,42.480,31.738,0
10466.155,37.109,24.902,27.344,39.551,22.461,0
10466.159,26.855,20.020,26.855,36.133,20.996,0
10466.163,29.785,24.414,29.297,37.598,25.391,0
10466.167,30.273,27.832,30.273,35.156,17.578,0
10466.171,28.320,22.461,34.180,38.574,18.066,0
10466.175,32.715,21.973,31.250,32.227,32.715,0
10466.178,37.109,31.738,30.762,24.902,42.480,0
10466.182,34.668,35.645,33.203,32.227,34.180,0
10466.186,37.109,33.203,27.344,33.203,23.926,0
10466.190,38.574,32.227,28.809,32.715,32.227,0
10466.194,34.180,33.203,34.668,32.715,46.875,0
10466.198,36.621,39.062,32.715,41.504,57.129,0
10466.202,36.133,41.016,31.738,41.504,52.246,0
10466.206,41.992,38.086,35.645,45.410,35.645,0
10466.210,44.922,35.156,35.645,41.504,36.133,0
10466.214,29.297,32.715,31.738,24.414,31.250,0
10466.217,26.855,31.738,31.738,29.785,24.902,0
10466.221,31.738,33.691,31.250,33.691,41.992,0
10466.225,34.180,36.133,28.809,39.551,51.270,0
10466.229,35.156,33.203,30.762,41.016,43.457,0
10466.233,30.273,31.250,31.250,38.086,34.668,0
10466.237,38.574,33.691,32.227,46.875,28.809,0
10466.241,48.340,37.109,37.109,52.734,48.340,0
10466.245,41.504,37.109,33.691,48.828,60.547,0
10466.249,30.762,32.227,25.879,34.180,47.363,0
10466.253,29.297,27.832,25.391,20.996,38.086,0
10466.257,26.855,25.879,29.785,24.902,37.109,0
10466.260,29.297,24.902,36.621,30.762,41.016,0
10466.264,31.250,26.367,35.156,29.297,43.945,0
10466.268,25.879,26.855,28.320,32.715,32.715,0
10466.272,23.438,26.367,31.250,27.832,35.645,0
10466.276,29.297,28.809,33.203,20.996,44.922,0
10466.280,33.203,28.809,36.133,34.668,51.270,0
10466.284,29.785,28.809,41.016,37.598,50.293,0
10466.288,29.785,31.250,39.062,33.203,35.156,0
10466.292,26.855,31.738,35.156,28.809,45.898,0
10466.296,29.785,27.344,35.645,21.973,48.828,0
10466.300,34.180,33.203,38.086,32.227,38.086,0
10466.303,25.391,39.062,39.062,31.250,39.062,0
10466.307,19.531,36.133,38.086,25.391,40.039,0
10466.311,21.973,37.109,40.527,28.809,45.410,0
10466.315,25.879,35.645,36.621,31.738,45.410,0
10466.319,28.320,31.738,26.855,28.809,39.062,0
10466.323,28.320,29.297,25.879,24.902,48.828,0
10466.327,30.762,25.391,26.855,17.090,56.152,0
10466.331,29.297,27.344,27.832,14.160,52.734,0
10466.335,28.809,27.344,29.785,21.973,50.293,0
10466.339,29.785,29.785,30.762,28.320,56.641,0
10466.342,27.832,31.738,33.203,27.344,49.316,0
10466.346,27.832,27.344,33.691,26.367,49.805,0
10466.350,32.715,27.832,32.715,33.203,60.059,0
10466.354,37.598,29.297,34.668,37.109,46.875,0
10466.358,37.598,30.273,40.039,41.504,43.457,0
10466.362,37.109,32.227,42.480,43.457,49.805,0
10466.366,35.645,28.809,40.039,40.527,46.875,0
10466.370,34.668,26.367,40.527,36.621,44.922,0
10466.374,40.527,33.691,40.527,34.180,49.316,0
10466.378,45.898,37.109,41.992,33.691,48.828,0
10466.382,46.387,34.668,41.504,32.715,44.434,0
10466.385,41.016,37.109,38.574,34.180,39.062,0
10466.389,37.109,35.645,36.621,35.645,42.969,0
10466.393,40.039,36.133,39.551,41.016,49.316,0
10466.397,39.551,34.668,44.434,42.480,52.734,0
10466.401,38.086,25.879,41.016,40.039,48.340,0
10466.405,37.598,30.273,40.039,49.316,45.898,0
10466.409,34.180,36.621,41.992,54.199,46.387,0
10466.413,35.645,35.156,43.945,45.898,35.645,0
10466.417,30.762,33.203,44.922,34.668,37.109,0
10466.421,26.855,29.785,38.086,29.297,41.992,0
10466.425,37.598,30.273,38.086,33.203,27.344,0
10466.428,36.133,28.320,38.574,31.250,9.277,0
10466.432,30.273,29.785,37.109,38.086,7.812,0
10466.436,34.180,33.691,38.574,41.016,5.371,0
10466.440,37.109,31.738,35.645,32.227,9.277,0
10466.444,36.133,25.879,35.645,34.668,20.996,0
10466.448,33.691,23.926,37.109,36.621,18.555,0
10466.452,39.062,28.809,34.668,35.645,13.672,0
10466.456,45.898,33.203,33.691,29.785,19.043,0
10466.460,39.551,32.227,32.227,29.297,26.367,0
10466.464,29.785,28.809,36.133,31.250,25.879,0
10466.467,26.367,28.809,41.992,28.320,21.484,0
10466.471,30.762,29.785,43.457,41.504,27.832,0
10466.475,37.598,28.320,41.504,49.316,32.715,0
10466.479,36.133,26.855,39.062,36.133,33.203,0
10466.483,32.715,25.391,40.039,33.691,35.156,0
10466.487,33.203,26.855,41.016,41.016,31.250,0
10466.491,34.180,34.668,42.480,43.457,43.945,0
10466.495,35.156,34.668,42.480,32.715,50.781,0
10466.499,36.133,31.738,36.621,27.344,37.598,0
10466.503,35.156,35.645,31.250,27.344,31.250,0
10466.507,43.457,35.156,30.762,36.133,43.457,0
10466.510,41.016,34.180,33.203,36.133,55.176,0
10466.514,30.762,27.344,31.250,30.273,49.805,0
10466.518,32.715,22.949,27.832,31.738,23.438,0
10466.522,29.297,29.297,24.414,31.250,10.742,0
10466.526,32.715,34.668,27.344,32.227,30.273,0
10466.530,43.457,33.203,24.414,28.320,39.062,0
10466.534,42.969,33.691,20.020,31.738,21.484,0
10466.538,32.715,32.715,23.438,33.691,1.953,0
10466.542,28.809,31.250,26.367,31.250,9.277,0
10466.546,33.691,33.203,26.855,37.109,32.227,0
10466.550,36.621,31.738,28.809,39.062,29.297,0
10466.553,34.668,33.691,30.762,36.621,19.531,2
10466.557,36.133,31.738,28.320,39.551,26.855,0
10466.561,42.969,28.809,28.320,37.598,26.855,0
10466.565,41.992,31.738,27.832,32.227,24.414,0
10466.569,31.738,35.645,22.461,34.180,33.203,0
10466.573,25.879,38.086,23.926,32.227,40.039,0
10466.577,28.320,36.621,30.762,32.715,30.273,0
10466.581,31.738,35.645,34.180,29.297,26.855,0
10466.585,33.203,39.062,36.133,28.809,26.855,0
10466.589,31.250,38.086,34.668,23.926,23.438,0
10466.592,30.273,34.180,35.645,15.137,32.227,0
10466.596,32.227,33.691,39.551,24.414,28.320,0
10466.600,39.551,34.668,40.527,31.738,30.273,0
10466.604,41.504,34.180,37.598,32.715,36.621,0
10466.608,33.691,33.691,33.691,37.598,29.297,0
10466.612,32.227,32.715,36.621,33.691,27.344,0
10466.616,31.738,30.273,35.645,31.250,25.879,0
10466.620,32.715,28.809,35.156,35.645,28.320,0
10466.624,32.227,28.809,36.133,32.227,28.809,0
10466.628,33.203,34.668,33.691,30.762,28.809,0
10466.632,37.109,38.574,31.738,32.227,38.086,0
10466.635,28.320,34.668,36.621,34.668,33.691,0
10466.639,22.461,33.203,41.504,31.738,27.344,0
10466.643,27.344,33.691,41.016,27.344,33.691,0
10466.647,31.738,31.738,42.480,28.320,37.109,0
10466.651,40.527,34.668,45.410,30.762,40.039,0
10466.655,35.645,34.180,41.016,35.645,44.434,0
10466.659,32.227,30.273,38.574,40.039,44.434,0
10466.663,40.039,29.297,41.504,41.992,30.762,0
10466.667,32.227,29.297,43.457,39.551,22.461,0
10466.671,26.855,31.250,39.062,33.203,30.762,0
10466.675,33.691,29.297,40.039,41.504,41.016,0
10466.678,34.668,27.832,42.969,41.016,45.898,0
10466.682,32.227,29.297,40.527,28.809,38.086,0
10466.686,29.297,27.832,37.109,29.785,20.020,0
10466.690,27.344,29.785,38.574,32.227,19.043,0
10466.694,30.273,35.156,41.016,38.086,28.809,0
10466.698,33.203,36.133,40.527,41.504,20.996,0
10466.702,32.227,31.738,42.480,36.133,10.254,0
10466.706,31.250,28.809,43.945,32.227,16.113,0
10466.710,31.250,29.297,41.992,38.086,31.738,0
10466.714,33.691,30.273,43.945,39.062,37.598,0
10466.717,33.691,25.391,41.992,29.785,30.273,0
10466.721,28.320,23.438,36.621,23.926,25.391,0
10466.725,32.227,26.367,29.785,28.320,31.738,0
10466.729,38.086,29.297,26.855,37.109,34.668,0
10466.733,34.180,29.785,31.738,24.902,34.180,0
10466.737,29.297,25.391,32.227,16.113,30.273,0
10466.741,35.645,32.227,31.738,24.414,33.203,0
10466.745,32.227,38.574,36.133,28.809,44.922,0
10466.749,30.762,34.668,39.551,29.297,39.551,0
10466.753,35.156,29.297,40.527,27.832,24.414,0
10466.757,30.762,28.809,37.598,26.367,22.461,0
10466.760,36.133,31.738,31.738,30.762,34.180,0
10466.764,41.992,33.203,29.297,36.133,49.316,0
10466.768,37.598,34.180,30.273,35.156,41.016,0
10466.772,33.203,36.621,32.227,27.832,20.508,0
10466.776,30.273,33.203,32.227,27.832,20.996,0
10466.780,27.832,25.879,30.762,30.762,20.508,0
10466.784,25.879,26.367,33.203,30.762,14.160,0
10466.788,26.855,29.297,33.691,32.227,12.207,0
10466.792,31.738,26.855,35.156,33.203,12.695,0
10466.796,33.203,26.855,36.621,40.527,23.926,0
10466.800,37.598,32.227,38.086,49.805,39.551,0
10466.803,41.016,26.855,36.133,45.410,41.992,0
10466.807,42.480,22.461,37.109,39.062,47.363,0
10466.811,38.574,28.809,38.574,38.086,53.223,0
10466.815,34.180,29.785,33.691,40.527,44.922,0
10466.819,37.598,31.738,31.250,41.504,43.457,0
10466.823,41.992,35.645,31.738,46.875,53.711,0
10466.827,43.457,34.180,29.785,49.316,58.105,0
10466.831,45.898,32.715,30.273,49.316,59.570,0
10466.835,44.922,33.203,33.691,49.316,44.922,0
10466.839,43.457,35.156,35.645,39.062,31.250,0
10466.842,45.410,36.133,36.133,40.527,35.645,0
10466.846,32.715,31.738,28.809,38.086,47.852,0
10466.850,27.832,27.832,25.391,32.715,44.434,0
10466.854,31.250,26.855,24.902,31.250,14.160,0
10466.858,29.297,27.344,20.996,19.043,0.488,0
10466.862,29.785,28.320,22.949,16.113,3.906,0
10466.866,27.832,30.273,26.855,22.949,12.207,0
10466.870,23.926,30.273,23.926,16.113,14.160,0
10466.874,26.855,27.344,24.414,18.066,19.531,0
10466.878,30.762,28.320,29.785,28.320,33.203,0
10466.882,30.762,29.297,31.738,30.273,37.598,0
10466.885,28.809,30.762,29.297,43.457,29.785,0
10466.889,30.273,31.738,26.367,54.688,25.879,0
10466.893,32.227,30.762,20.020,38.574,38.574,0
10466.897,34.180,33.203,19.531,24.902,48.828,0
10466.901,38.086,33.203,27.344,24.902,31.250,0
10466.905,39.551,30.273,25.391,20.508,16.113,0
10466.909,41.016,32.227,22.461,25.879,24.902,0
10466.913,38.574,25.879,24.902,37.109,33.203,0
10466.917,32.227,22.461,26.367,36.621,29.785,0
10466.921,32.227,35.156,30.273,39.551,33.203,0
10466.925,28.320,37.598,30.273,40.527,39.062,0
10466.928,26.367,31.738,29.297,38.086,35.645,0
10466.932,34.180,30.273,29.297,37.109,32.715,0
10466.936,39.062,34.180,31.250,38.086,32.715,0
10466.940,39.551,34.180,31.250,39.062,41.992,0
10466.944,37.109,27.344,30.273,48.340,50.293,0
10466.948,36.621,26.367,32.715,47.363,53.711,0
10466.952,47.852,35.156,30.273,29.297,46.387,0
10466.956,45.898,37.109,26.367,39.551,32.715,0
10466.960,33.691,34.180,30.273,47.363,35.156,0
10466.964,35.645,33.691,29.297,33.691,32.715,0
10466.967,40.039,36.621,26.855,42.969,17.578,0
10466.971,39.062,36.621,27.344,40.039,21.973,0
10466.975,41.016,33.203,26.855,27.832,37.109,0
10466.979,41.992,30.273,27.344,35.156,40.039,0
10466.983,41.504,27.344,24.414,37.109,27.344,0
10466.987,37.109,28.809,29.785,41.504,26.367,0
10466.991,38.574,29.297,33.203,42.969,45.410,0
10466.995,45.410,28.809,30.762,34.668,46.387,0
10466.999,49.805,31.250,28.809,31.738,37.109,0
10467.003,42.480,30.273,30.762,39.551,32.227,0
10467.007,39.062,25.391,37.598,50.781,35.156,0
10467.010,36.133,26.367,35.645,49.316,39.551,0
10467.014,31.250,29.785,28.809,34.180,33.203,0
10467.018,27.832,31.738,25.879,26.367,25.391,0
10467.022,27.344,32.715,28.809,32.715,26.855,0
10467.026,27.344,34.668,28.809,28.320,37.598,0
10467.030,27.344,33.691,25.391,24.902,38.086,0
10467.034,27.344,32.715,23.926,30.762,16.602,0
10467.038,25.879,33.203,21.484,29.785,7.324,0
10467.042,21.973,33.203,23.438,28.809,17.578,0
10467.046,27.832,34.180,27.344,35.645,26.855,0
10467.050,39.062,32.227,27.832,31.250,23.438,0
10467.053,25.879,27.832,27.832,19.531,1.953,0
10467.057,10.254,31.250,27.344,28.809,6.836,0
10467.061,18.555,31.738,29.297,40.527,27.344,0
10467.065,24.414,27.832,29.785,35.645,31.738,0
10467.069,29.297,32.715,31.738,39.062,33.203,0
10467.073,40.039,33.203,33.203,43.457,42.480,0
10467.077,37.109,28.809,31.250,36.621,43.945,0
10467.081,32.227,28.320,32.715,36.133,44.434,0
10467.085,31.250,29.785,31.250,35.156,42.480,0
10467.089,32.227,29.297,31.738,29.297,37.109,0
10467.092,33.691,28.320,33.203,31.738,30.762,0
10467.096,33.203,26.855,30.762,27.832,19.043,0
10467.100,34.668,29.785,31.738,26.855,24.414,0
10467.104,38.574,32.715,28.320,29.297,33.203,0
10467.108,39.062,32.227,29.785,36.133,42.480,0
10467.112,35.156,37.109,33.691,40.039,52.246,0
10467.116,34.668,36.133,33.203,46.387,40.039,0
10467.120,43.945,35.645,37.109,55.176,25.391,0
10467.124,38.574,39.062,36.621,44.434,37.109,0
10467.128,23.438,33.203,32.227,25.879,36.621,0
10467.132,29.297,28.809,31.250,27.344,25.391,0
10467.135,38.086,33.203,35.645,35.156,27.344,0
10467.139,38.574,34.180,36.133,36.133,31.250,2
10467.143,32.715,31.738,32.715,30.273,33.691,0
10467.147,30.762,35.156,36.133,29.785,40.527,0
10467.151,27.344,31.738,31.250,33.203,29.297,0
10467.155,26.855,25.391,24.902,29.785,27.344,0
10467.159,33.691,29.297,28.809,42.969,42.480,0
10467.163,37.598,33.691,33.203,50.781,33.691,0
10467.167,29.785,34.668,29.297,28.809,18.555,0
10467.171,24.414,33.203,29.297,20.020,20.020,0
10467.175,31.738,34.180,32.227,36.133,34.180,0
10467.178,31.738,38.574,24.902,30.273,42.480,0
10467.182,32.715,41.504,23.926,22.949,37.109,0
10467.186,37.109,37.598,29.297,28.320,21.973,0
10467.190,40.527,35.645,31.250,24.414,27.832,0
10467.194,37.109,38.574,29.785,29.785,36.621,0
10467.198,26.367,35.645,23.438,31.250,36.133,0
10467.202,22.949,34.180,24.902,20.996,29.297,0
10467.206,22.949,32.227,31.250,20.508,18.555,0
10467.210,24.902,27.832,27.344,23.438,18.066,0
10467.214,26.367,28.320,27.344,32.715,26.367,0
10467.217,26.367,33.203,30.273,40.039,19.531,0
10467.221,27.832,36.133,28.320,25.879,14.160,0
10467.225,26.367,34.180,21.484,23.926,20.996,0
10467.229,22.949,30.273,15.625,26.855,21.973,0
10467.233,18.555,27.344,15.625,25.391,17.578,0
10467.237,18.066,27.344,16.113,17.578,20.020,0
10467.241,19.043,30.762,20.020,19.531,25.391,0
10467.245,21.484,26.855,21.484,23.438,17.090,0
10467.249,31.250,23.926,24.902,21.973,11.719,0
10467.253,32.227,27.344,27.344,36.133,13.184,0
10467.257,22.461,28.320,29.785,37.598,15.137,0
10467.260,23.926,29.785,34.180,36.621,28.809,0
10467.264,34.668,31.250,33.203,41.992,40.039,0
10467.268,31.738,33.691,31.738,31.250,22.949,0
10467.272,38.086,31.738,33.203,29.785,20.996,0
10467.276,40.039,30.762,33.691,31.738,31.738,0
10467.280,29.785,27.832,33.203,28.320,24.414,0
10467.284,26.367,24.902,30.762,39.551,32.715,0
10467.288,26.367,26.367,30.762,33.203,48.340,0
10467.292,29.785,23.438,34.668,23.438,38.086,0
10467.296,34.180,26.367,37.109,29.785,31.250,0
10467.300,33.691,24.902,40.527,32.715,34.668,0
10467.303,28.809,21.973,42.480,43.945,31.250,0
10467.307,32.227,27.832,42.480,50.781,47.363,0
10467.311,39.062,34.668,44.434,43.945,57.129,0
10467.315,37.109,33.203,41.992,44.922,50.293,0
10467.319,35.645,29.297,37.109,43.457,46.387,0
10467.323,31.738,31.250,35.645,36.621,49.316,0
10467.327,30.273,34.180,34.668,34.180,54.199,0
10467.331,35.645,32.715,36.621,27.832,55.176,0
10467.335,39.062,32.227,39.551,39.551,48.340,0
10467.339,30.762,33.203,37.598,44.434,38.574,0
10467.342,26.855,31.250,38.086,35.156,41.992,0
10467.346,30.273,31.738,40.527,36.621,60.059,0
10467.350,31.250,30.273,39.551,34.180,62.012,0
10467.354,34.668,30.273,36.621,26.855,46.387,0
10467.358,39.551,33.203,37.109,31.738,51.270,0
10467.362,42.969,31.738,38.086,35.645,59.570,0
10467.366,41.504,30.762,39.062,30.273,47.852,0
10467.370,34.668,36.133,42.480,31.738,42.480,0
10467.374,41.016,39.062,46.875,32.715,49.316,0
10467.378,41.504,31.250,42.969,28.809,52.734,0
10467.382,34.180,27.344,41.016,29.785,42.969,0
10467.385,26.367,30.762,47.852,31.250,32.715,0
10467.389,28.809,34.668,50.293,29.297,45.898,0
10467.393,47.852,39.062,49.805,41.992,59.570,0
10467.397,50.293,38.574,49.316,56.641,62.988,0
10467.401,38.086,34.668,47.363,49.316,50.781,0
10467.405,33.691,37.109,49.316,35.156,38.086,0
10467.409,37.109,41.992,47.852,37.598,45.898,0
10467.413,38.574,38.574,45.410,40.039,49.805,0
10467.417,38.086,36.133,47.363,36.621,41.992,0
10467.421,40.527,35.156,49.805,41.016,41.992,0
10467.425,38.574,33.203,46.875,36.621,53.711,0
10467.428,37.109,34.180,46.387,35.645,53.223,0
10467.432,37.598,27.344,43.945,41.016,39.551,0
10467.436,37.109,22.461,38.574,38.086,34.668,0
10467.440,41.992,29.297,38.086,33.691,35.645,0
10467.444,43.457,38.574,42.480,35.645,33.203,0
10467.448,33.691,43.457,44.434,41.992,37.598,0
10467.452,29.785,39.551,41.992,41.504,37.109,0
10467.456,33.203,33.203,42.969,27.832,33.691,0
10467.460,32.227,31.250,45.898,23.926,39.062,0
10467.464,34.180,35.156,46.875,33.691,42.969,0
10467.467,39.062,37.109,41.016,31.250,40.527,0
10467.471,31.250,33.203,32.715,30.273,38.086,0
10467.475,31.250,33.691,33.691,44.922,33.691,0
10467.479,30.273,33.691,36.133,39.062,31.250,0
10467.483,24.414,35.645,39.551,30.273,31.738,0
10467.487,32.227,38.574,42.480,41.992,39.551,0
10467.491,36.621,37.598,39.551,48.340,60.059,0
10467.495,36.621,31.738,39.062,35.156,55.664,0
10467.499,33.691,29.297,38.086,30.762,34.668,0
10467.503,23.438,30.273,36.621,35.156,22.949,0
10467.507,25.391,31.738,37.598,39.551,32.715,0
10467.510,36.621,33.691,39.062,44.434,41.504,0
10467.514,33.691,28.809,35.645,35.156,38.574,0
10467.518,32.715,25.391,35.156,38.086,34.180,0
10467.522,46.387,28.320,35.645,34.180,31.250,0
10467.526,38.574,29.785,33.203,24.414,32.227,0
10467.530,14.648,27.344,29.785,32.715,31.738,0
10467.534,19.043,27.344,29.785,32.715,23.926,0
10467.538,28.809,26.367,33.691,33.691,20.996,0
10467.542,30.762,28.320,36.621,38.086,33.691,0
10467.546,28.809,29.785,37.109,32.227,39.551,0
10467.550,34.668,27.344,36.621,35.156,34.668,0
10467.553,41.504,29.785,36.621,44.434,16.113,0
10467.557,38.086,35.156,39.062,41.992,24.414,0
10467.561,38.574,37.109,40.527,29.785,46.387,0
10467.565,39.551,36.621,38.086,30.762,33.691,0
10467.569,37.598,36.133,33.203,30.273,21.973,0
10467.573,39.062,35.645,31.738,26.367,33.691,0
10467.577,42.480,37.109,31.250,29.785,38.574,0
10467.581,45.898,36.621,25.879,25.879,31.250,0
10467.585,45.898,37.598,27.344,31.738,25.879,0
10467.589,45.410,37.598,32.227,44.922,25.879,0
10467.592,47.363,30.273,34.180,39.062,35.645,0
10467.596,42.969,27.832,39.062,27.344,40.527,0
10467.600,37.598,29.785,41.016,33.203,42.969,0
10467.604,36.133,32.227,34.180,41.504,48.828,0
10467.608,34.180,33.203,29.297,45.898,38.574,0
10467.612,31.738,28.809,29.297,42.969,17.090,0
10467.616,29.297,27.832,29.785,33.203,14.160,0
10467.620,22.949,30.273,31.250,23.926,17.090,0
10467.624,24.902,31.738,29.785,25.391,28.320,0
10467.628,27.344,32.715,27.832,32.227,32.715,0
10467.632,28.320,31.250,30.273,35.645,22.949,0
10467.635,33.203,31.250,35.156,42.480,21.973,0
10467.639,40.039,32.715,34.668,42.969,19.043,0
10467.643,39.062,28.320,33.203,42.480,20.508,0
10467.647,29.785,25.391,35.156,40.527,32.715,0
10467.651,34.180,29.785,39.062,41.992,40.039,0
10467.655,37.598,29.785,37.598,36.621,40.039,0
10467.659,34.668,28.320,30.762,31.250,55.664,0
10467.663,38.574,28.320,30.762,43.457,67.871,0
10467.667,32.227,28.809,28.809,46.875,52.246,0
10467.671,33.203,35.156,28.320,46.875,37.109,0
10467.675,37.598,36.133,29.297,44.922,41.504,0
10467.678,39.062,33.203,27.344,49.805,44.434,0
10467.682,40.527,36.133,28.320,45.410,37.109,0
10467.686,35.645,36.133,29.785,36.621,34.180,0
10467.690,34.668,25.879,26.367,29.785,36.133,0
10467.694,34.180,24.414,24.414,30.273,27.344,0
10467.698,39.551,34.668,29.297,41.504,24.414,0
10467.702,42.969,37.109,31.250,39.062,29.297,0
10467.706,37.109,28.320,29.297,43.945,32.227,0
10467.710,43.457,30.273,33.203,48.828,40.527,0
10467.714,38.574,35.645,32.227,33.203,38.086,0
10467.717,26.367,31.738,27.344,27.832,30.273,0
10467.721,32.227,31.738,27.344,35.156,35.645,0
10467.725,33.691,34.180,26.367,38.574,38.086,0
10467.729,34.180,34.668,29.785,33.691,38.574,0
10467.733,32.715,31.250,31.250,26.855,39.551,0
10467.737,21.973,28.809,26.367,31.250,31.738,0
10467.741,19.531,29.297,24.902,39.551,30.273,0
10467.745,29.785,30.762,28.320,31.250,38.574,0
10467.749,34.180,32.227,31.738,22.461,40.527,0
10467.753,30.273,32.715,30.762,28.809,32.227,0
10467.757,28.809,32.715,31.738,39.062,25.391,0
10467.760,28.809,34.180,34.180,32.227,33.203,0
10467.764,32.715,37.598,35.645,20.508,44.434,0
10467.768,43.945,41.504,32.715,32.227,28.320,0
10467.772,41.992,39.062,29.297,34.668,12.695,0
10467.776,25.879,34.180,28.320,26.855,25.391,0
10467.780,22.949,34.668,27.344,35.645,26.367,0
10467.784,31.250,36.621,29.297,33.691,9.766,0
10467.788,34.180,37.109,32.227,27.344,14.160,0
10467.792,28.320,37.109,29.297,34.180,29.785,0
10467.796,26.855,38.574,27.832,34.180,42.969,0
10467.800,31.738,41.016,27.832,30.762,35.156,0
10467.803,34.180,42.480,27.832,29.785,11.719,0
10467.807,37.109,40.527,31.738,31.738,11.719,0
10467.811,32.715,36.133,32.715,25.391,27.344,0
10467.815,23.438,35.156,28.320,23.438,30.273,0
10467.819,23.926,38.574,30.273,33.203,12.207,0
10467.823,28.320,37.109,33.691,26.855,15.625,2
10467.827,31.250,32.715,30.762,21.973,24.414,0
10467.831,28.320,32.715,29.297,30.762,22.461,0
10467.835,26.367,32.715,30.273,22.461,20.996,0
10467.839,32.715,31.738,34.180,22.949,22.949,0
10467.842,38.574,34.180,35.645,29.785,34.180,0
10467.846,34.180,33.691,32.715,28.809,32.227,0
10467.850,31.250,32.227,31.250,33.691,25.391,0
10467.854,40.039,34.180,30.273,32.227,25.391,0
10467.858,43.945,33.203,30.273,31.250,34.180,0
10467.862,38.086,32.715,34.180,34.180,42.969,0
10467.866,31.738,32.715,36.133,31.250,34.668,0
10467.870,28.320,29.785,29.785,41.992,21.484,0
10467.874,31.250,25.879,25.391,37.109,21.973,0
10467.878,32.715,26.855,22.949,12.207,30.273,0
10467.882,28.809,27.344,18.555,12.207,34.180,0
10467.885,28.320,27.344,21.973,23.438,25.391,0
10467.889,30.762,20.020,21.973,26.367,18.555,0
10467.893,30.762,19.531,25.879,24.902,18.066,0
10467.897,33.691,31.250,30.273,22.949,14.648,0
10467.901,33.691,33.203,26.367,22.949,13.184,0
10467.905,32.227,28.809,26.367,24.902,5.859,0
10467.909,31.250,29.785,26.855,26.855,10.254,0
10467.913,28.809,32.227,26.367,41.504,22.949,0
10467.917,30.273,31.250,32.227,40.039,21.484,0
10467.921,31.250,26.855,34.668,31.738,17.578,0
10467.925,34.668,32.227,32.715,37.598,28.809,0
10467.928,44.434,39.062,33.203,40.527,40.527,0
10467.932,47.852,38.574,32.715,40.039,48.828,0
10467.936,39.062,35.156,29.297,38.086,52.246,0
10467.940,40.527,30.273,27.832,40.039,49.805,0
10467.944,43.457,29.297,26.855,33.203,47.363,0
10467.948,33.691,31.738,26.367,41.992,46.387,0
10467.952,28.320,28.809,27.344,40.039,37.109,0
10467.956,26.855,22.949,28.809,25.879,29.785,0
10467.960,31.738,26.855,31.738,30.762,33.691,0
10467.964,34.180,29.785,31.250,34.180,32.715,0
10467.967,30.273,27.832,28.809,34.180,21.484,0
10467.971,34.180,28.809,28.320,33.691,16.113,0
10467.975,33.691,26.367,26.855,37.598,20.020,0
10467.979,27.344,27.832,29.297,36.133,24.902,0
10467.983,28.320,29.785,28.809,22.461,26.367,0
10467.987,30.273,29.297,24.414,29.297,33.203,0
10467.991,30.762,33.691,27.344,37.109,37.109,0
10467.995,36.133,36.133,33.203,27.832,34.180,0
10467.999,30.273,32.715,32.715,33.691,26.367,0
10468.003,19.043,25.879,31.250,34.668,17.578,0
10468.007,24.902,30.273,32.715,23.438,29.297,0
10468.010,34.668,37.598,29.297,26.855,35.645,0
10468.014,28.809,31.250,25.879,29.785,28.809,0
10468.018,24.902,29.297,27.344,26.367,24.414,0
10468.022,32.715,32.715,33.203,32.227,27.832,0
10468.026,28.320,35.645,36.133,41.016,38.086,0
10468.030,22.949,32.227,28.809,34.180,38.574,0
10468.034,21.973,26.367,22.949,25.391,26.855,0
10468.038,21.973,27.832,26.855,36.133,14.160,0
10468.042,30.762,30.762,31.738,46.387,15.625,0
10468.046,34.668,30.762,31.250,31.738,20.508,0
10468.050,25.391,31.738,26.367,23.438,18.066,0
10468.053,23.926,33.203,24.414,40.039,20.020,0
10468.057,26.367,34.180,26.855,32.715,28.320,0
10468.061,24.902,35.645,26.855,25.879,32.715,0
10468.065,27.344,35.156,28.320,41.016,32.227,0
10468.069,32.715,34.668,28.320,35.156,30.762,0
10468.073,34.668,32.715,26.855,37.598,39.062,0
10468.077,32.227,30.762,25.391,54.688,50.293,0
10468.081,34.668,30.762,27.344,52.734,56.641,0
10468.085,41.504,32.227,32.715,31.738,46.875,0
10468.089,39.062,32.715,24.414,28.320,38.086,0
10468.092,33.691,28.809,16.113,37.109,50.293,0
10468.096,38.574,32.715,20.508,41.016,60.059,0
10468.100,41.016,38.574,26.855,51.758,53.711,0
10468.104,41.016,37.109,28.320,54.688,43.457,0
10468.108,46.875,36.621,32.715,43.457,47.852,0
10468.112,54.688,37.598,38.086,45.410,44.922,0
10468.116,46.875,34.668,36.621,41.016,29.297,0
10468.120,36.133,34.180,31.250,44.434,28.320,0
10468.124,33.691,35.645,26.855,40.039,30.273,0
10468.128,28.809,32.715,25.391,27.832,33.691,0
10468.132,27.832,35.645,30.273,36.133,36.133,0
10468.135,27.832,36.621,29.297,39.062,15.137,0
10468.139,31.738,35.645,27.832,35.156,10.742,0
10468.143,34.180,41.016,28.809,26.367,22.949,0
10468.147,30.273,38.574,31.250,25.879,22.949,0
10468.151,25.391,31.250,33.203,33.691,24.902,0
10468.155,32.715,32.715,33.203,39.551,40.527,0
10468.159,40.527,37.598,35.645,38.574,42.969,0
10468.163,40.527,38.574,36.133,42.969,39.062,0
10468.167,41.992,38.574,31.738,40.039,43.945,0
10468.171,37.109,36.133,31.250,27.344,40.527,0
10468.175,32.715,31.738,34.180,31.738,42.480,0
10468.178,36.133,30.762,35.645,44.922,46.387,0
10468.182,37.598,28.809,34.180,49.316,39.551,0
10468.186,36.133,28.809,32.227,48.828,31.738,0
10468.190,37.598,27.832,32.227,43.945,37.109,0
10468.194,38.574,26.855,32.715,39.551,49.805,0
10468.198,35.645,32.227,34.180,41.992,45.898,0
10468.202,36.621,34.668,34.668,36.621,28.809,0
10468.206,37.598,35.156,33.691,25.391,17.578,0
10468.210,35.156,37.598,31.738,27.344,15.137,0
10468.214,29.785,40.527,33.203,37.109,20.996,0
10468.217,22.949,36.621,31.738,29.785,10.742,0
10468.221,21.973,31.250,33.203,27.344,8.789,0
10468.225,28.809,35.156,37.109,35.156,16.113,0
10468.229,27.832,37.109,34.180,28.320,16.602,0
10468.233,23.926,36.621,35.645,29.785,26.855,0
10468.237,20.996,37.598,36.621,26.367,22.461,0
10468.241,18.555,34.180,33.203,19.531,9.766,0
10468.245,19.043,32.227,30.273,31.738,13.672,0
10468.249,17.090,30.273,28.320,33.203,13.672,0
10468.253,19.043,29.297,30.273,11.230,-0.488,0
10468.257,25.391,27.832,29.297,15.625,-1.465,0
10468.260,24.414,27.344,27.832,25.879,19.531,0
10468.264,20.508,28.809,27.344,21.973,29.297,0
10468.268,14.648,31.250,25.879,32.715,24.902,0
10468.272,16.602,35.156,30.273,34.668,26.855,0
10468.276,25.391,36.621,33.203,29.297,29.785,0
10468.280,33.203,36.133,33.203,28.809,33.691,0
10468.284,44.434,34.668,37.598,37.598,31.250,0
10468.288,39.551,35.156,40.039,40.039,20.996,0
10468.292,22.461,32.227,39.062,27.832,23.926,0
10468.296,22.461,26.855,38.086,29.785,32.715,0
10468.300,26.367,28.809,39.551,34.180,33.691,0
10468.303,28.320,36.621,41.016,32.715,30.762,0
10468.307,33.691,40.039,39.062,28.320,23.926,0
10468.311,39.062,36.621,37.109,25.879,19.531,0
10468.315,35.645,33.203,29.785,32.715,23.926,0
10468.319,29.785,35.156,25.879,34.668,25.879,0
10468.323,30.762,34.668,30.762,31.250,27.832,0
10468.327,35.645,33.691,32.715,36.133,30.273,0
10468.331,40.527,34.668,29.785,47.363,37.109,0
10468.335,38.574,35.645,28.320,37.109,31.738,0
10468.339,37.598,36.621,29.297,34.668,37.109,0
10468.342,40.527,33.203,28.320,41.504,60.059,0
10468.346,40.039,30.762,26.367,29.297,55.664,0
10468.350,31.250,30.762,25.879,31.250,46.875,0
10468.354,30.273,31.250,28.809,38.086,48.828,0
10468.358,37.109,32.715,28.320,34.668,52.246,0
10468.362,41.016,32.715,29.297,35.156,63.965,0
10468.366,41.992,37.598,35.645,41.016,70.312,0
10468.370,32.227,37.109,36.621,39.551,50.293,0
10468.374,30.762,28.320,33.203,45.898,37.109,0
10468.378,38.574,29.785,32.227,40.039,53.223,0
10468.382,34.668,37.598,37.598,29.785,60.547,0
10468.385,30.273,30.762,41.992,29.297,42.969,0
10468.389,33.203,27.832,39.062,24.414,31.250,0
10468.393,37.598,39.062,33.691,30.762,35.645,0
10468.397,36.621,43.457,30.273,35.645,30.273,0
10468.401,38.574,41.504,33.203,33.203,26.367,0
10468.405,40.527,37.109,39.062,28.320,38.574,0
10468.409,32.715,32.715,41.992,23.438,45.898,0
10468.413,34.668,28.320,38.086,28.320,45.898,1
10468.417,35.645,29.297,36.133,35.645,41.992,0
10468.421,29.297,37.109,38.574,36.621,37.598,0
10468.425,31.250,37.598,38.086,38.086,34.180,0
10468.428,35.156,34.668,33.203,29.297,33.203,0
10468.432,34.668,37.109,33.203,21.973,37.598,0
10468.436,38.086,36.621,40.527,27.344,40.039,0
10468.440,43.457,33.691,41.016,30.762,44.922,0
10468.444,34.668,33.691,34.668,24.902,41.016,0
10468.448,31.738,36.621,32.715,22.461,39.551,0
10468.452,36.133,38.574,34.668,27.832,42.480,0
10468.456,33.691,34.668,32.227,33.691,45.410,0
10468.460,38.086,32.715,29.785,40.527,59.570,0
10468.464,37.109,32.227,31.738,32.715,58.105,0
10468.467,34.180,28.320,34.668,33.691,39.551,0
10468.471,38.086,29.785,40.527,34.180,41.504,0
10468.475,41.992,31.738,43.457,26.855,57.129,0
10468.479,45.410,31.738,42.969,29.297,53.711,0
10468.483,46.387,33.203,41.016,29.785,33.691,0
10468.487,43.457,31.250,41.992,27.832,20.020,0
10468.491,46.387,28.320,41.504,27.344,34.668,0
10468.495,52.246,31.738,43.457,36.621,57.617,0
10468.499,41.504,33.203,44.434,36.621,45.898,0
10468.503,25.879,29.297,37.598,31.738,19.531,0
10468.507,31.738,33.691,37.109,44.434,12.207,0
10468.510,41.016,36.621,40.527,39.551,11.230,0
10468.514,35.645,29.785,40.527,37.109,22.461,0
10468.518,27.344,29.297,38.574,35.156,28.320,0
10468.522,29.785,35.156,36.621,24.902,27.832,0
10468.526,38.086,37.598,36.621,26.367,41.016,0
10468.530,35.645,34.180,36.621,34.180,43.457,0
10468.534,30.273,33.691,39.062,40.527,27.344,0
10468.538,35.156,34.668,42.480,33.203,22.949,0
10468.542,31.738,36.621,45.410,34.668,35.156,0
10468.546,23.438,38.086,39.062,33.691,36.621,0
10468.550,25.391,34.180,33.691,33.203,28.320,0
10468.553,29.785,36.621,35.156,30.273,25.879,0
10468.557,22.461,37.109,34.180,28.320,28.809,0
10468.561,23.926,33.203,27.344,34.180,31.250,0
10468.565,30.762,33.691,22.461,30.762,28.320,0
10468.569,28.320,35.645,24.902,33.203,27.832,0
10468.573,30.273,37.109,29.297,33.203,37.109,0
10468.577,27.344,34.668,31.250,36.133,44.434,0
10468.581,30.273,37.109,31.738,38.086,48.340,0
10468.585,40.039,38.086,32.715,34.668,37.598,0
10468.589,37.109,33.691,31.738,39.551,25.879,0
10468.592,35.645,33.691,25.391,36.621,28.320,0
10468.596,40.039,32.715,25.879,34.668,26.855,0
10468.600,41.016,26.855,28.809,42.969,32.227,0
10468.604,41.992,26.367,23.926,40.527,43.457,0
10468.608,41.992,28.320,26.855,32.715,62.012,0
10468.612,47.363,31.738,32.227,42.969,62.012,0
10468.616,47.852,37.109,31.250,53.223,43.457,0
10468.620,37.109,37.598,30.273,46.875,30.762,0
10468.624,33.203,37.598,31.738,41.992,37.598,0
10468.628,38.574,36.621,30.762,43.457,46.387,0
10468.632,43.945,39.062,33.691,44.922,34.668,0
10468.635,43.945,42.969,38.086,46.875,29.785,0
10468.639,47.363,42.969,38.086,47.363,38.574,0
10468.643,41.992,39.551,38.086,44.922,46.387,0
10468.647,32.227,40.039,36.133,36.621,49.316,0
10468.651,29.297,38.086,30.762,34.668,43.457,0
10468.655,38.086,33.691,31.738,41.016,42.480,0
10468.659,47.363,33.691,32.227,41.504,50.781,0
10468.663,40.527,34.180,27.344,34.180,52.734,0
10468.667,28.809,32.227,22.949,32.227,40.527,0
10468.671,33.203,31.250,25.391,33.203,33.203,0
10468.675,36.133,34.180,27.832,38.574,41.504,0
10468.678,32.227,36.133,25.391,41.016,46.875,0
10468.682,39.062,39.551,25.391,40.039,45.410,0
10468.686,43.457,40.039,27.344,41.016,37.109,0
10468.690,37.598,35.156,28.809,43.945,35.645,0
10468.694,37.109,36.133,30.273,49.805,37.598,0
10468.698,39.062,37.109,31.738,51.758,38.086,0
10468.702,34.180,32.227,29.785,39.062,31.250,0
10468.706,35.156,27.344,26.855,22.949,23.926,0
10468.710,36.133,24.414,26.367,32.715,36.133,0
10468.714,31.738,32.227,26.367,34.668,37.109,0
10468.717,31.250,36.133,27.832,22.949,25.879,0
10468.721,29.297,33.203,24.902,31.738,27.832,0
10468.725,27.832,32.715,26.367,26.367,32.715,0
10468.729,30.273,32.227,33.691,24.902,37.109,0
10468.733,34.180,35.156,35.645,35.645,42.969,0
10468.737,32.227,30.273,33.691,26.855,43.457,0
10468.741,36.133,27.344,39.062,27.344,48.828,0
10468.745,39.062,29.785,38.574,34.668,36.133,0
10468.749,32.227,35.645,34.180,33.691,26.855,0
10468.753,24.414,38.574,40.527,40.527,35.645,0
10468.757,23.926,32.227,40.039,42.969,40.039,0
10468.760,26.855,32.715,37.598,28.320,47.852,0
10468.764,28.320,36.133,37.598,25.879,60.059,0
10468.768,30.762,35.156,38.086,30.273,51.758,0
10468.772,31.250,33.691,45.410,37.109,33.691,0
10468.776,40.527,35.645,47.363,45.898,39.551,0
10468.780,40.527,35.645,39.551,39.551,41.992,0
10468.784,26.855,33.203,38.574,29.785,33.691,0
10468.788,31.738,32.227,43.945,28.809,29.297,0
