timestamps,TP9,AF7,AF8,TP10,Right AUX,Marker0
2056.249,-1000.000,176.758,322.754,-782.227,54.688,0
2056.253,-707.520,119.629,106.445,-979.980,-123.047,0
2056.257,-354.004,86.914,11.719,-716.797,20.508,0
2056.261,-242.188,58.594,18.555,-387.207,37.598,0
2056.265,160.645,16.113,4.395,170.898,52.734,0
2056.269,209.473,-6.348,119.141,856.445,87.891,0
2056.272,371.582,-16.602,204.102,-987.793,13.184,0
2056.276,661.133,-52.734,92.285,980.957,-23.926,0
2056.280,609.863,-51.270,69.336,-998.535,71.289,0
2056.284,848.145,-39.062,101.074,999.512,45.410,0
2056.288,-977.539,-62.988,20.996,999.512,-42.969,0
2056.292,990.723,-36.133,71.289,999.512,122.559,0
2056.296,944.824,27.344,276.367,999.512,145.996,0
2056.300,968.750,6.348,203.613,999.512,-79.102,0
2056.304,-991.211,-21.973,67.383,999.512,-5.371,0
2056.308,995.605,-35.645,17.090,999.512,23.438,0
2056.312,-1000.000,-49.805,-37.598,999.512,29.297,0
2056.315,999.512,-21.484,49.805,999.512,81.055,0
2056.319,999.512,-4.395,95.215,999.512,28.320,0
2056.323,999.512,-23.438,23.926,999.512,-53.223,0
2056.327,-1000.000,-24.902,9.766,998.535,-59.570,0
2056.331,992.676,-18.555,3.418,-999.512,-23.438,0
2056.335,996.582,-14.648,-0.977,-999.023,-20.996,0
2056.339,974.121,-3.906,-17.578,941.895,33.203,0
2056.343,604.004,64.453,172.852,-974.609,243.652,2
2056.347,343.750,106.445,274.414,644.043,67.871,0
2056.351,520.020,80.566,13.672,-28.320,-45.898,0
2056.354,406.250,84.961,-104.004,-250.488,106.934,0
2056.358,26.855,112.793,-119.629,-687.012,117.676,0
2056.362,-291.504,159.180,-54.688,-992.188,151.367,0
2056.366,-611.816,175.781,13.672,-958.984,49.316,0
2056.370,-613.770,152.832,-48.828,-966.309,1.953,0
2056.374,-504.883,137.695,-97.168,-971.191,90.820,0
2056.378,-823.730,136.230,-88.867,-970.215,101.074,0
2056.382,-993.652,143.066,-51.758,-970.215,67.383,0
2056.386,-957.520,135.254,-61.523,-970.215,-0.977,0
2056.390,-969.727,166.016,25.879,-970.215,158.203,0
2056.394,-970.703,225.586,264.160,-970.215,90.820,0
2056.397,-970.215,217.285,255.371,-970.215,-159.180,0
2056.401,-970.215,194.824,143.555,-970.215,-87.891,0
2056.405,-970.215,169.922,72.754,-970.215,-75.684,0
2056.409,-970.215,171.387,67.871,-970.215,77.148,0
2056.413,-970.215,187.988,132.324,-970.215,81.055,0
2056.417,-970.215,167.480,97.656,-970.215,-31.738,0
2056.421,-970.215,143.555,24.902,-970.215,-19.531,0
2056.425,-970.215,140.137,11.230,-970.215,-1.465,0
2056.429,-970.215,131.348,4.883,-969.727,3.906,0
2056.433,-970.215,124.512,11.719,-969.727,-12.207,0
2056.437,-972.656,116.211,-9.277,-972.168,4.883,0
2056.440,-948.242,175.781,176.270,-958.984,199.707,0
2056.444,-994.141,197.754,306.641,-941.406,3.418,0
2056.448,-843.262,130.371,104.980,-990.723,-158.691,0
2056.452,-107.910,96.680,-20.020,-847.168,62.012,0
2056.456,9.766,89.844,64.453,-338.379,119.629,0
2056.460,-121.094,83.008,200.195,121.094,32.227,0
2056.464,345.215,43.457,191.406,506.836,-60.059,0
2056.468,740.234,-16.113,95.215,870.605,-41.016,0
2056.472,974.609,-50.781,38.086,-993.652,21.973,0
2056.476,973.145,-52.246,32.715,991.211,26.367,0
2056.479,950.195,-45.898,26.855,998.535,62.012,0
2056.483,-949.219,-53.223,-11.719,999.512,31.250,0
2056.487,797.363,-17.578,75.195,999.512,178.711,0
2056.491,641.113,52.246,298.828,999.512,161.621,0
2056.495,939.453,22.461,196.777,993.164,-90.332,0
2056.499,-994.141,-20.020,5.859,997.070,26.855,0
2056.503,975.586,0.977,64.941,999.512,146.484,0
2056.507,942.871,7.324,103.027,999.512,83.008,0
2056.511,-997.559,-18.555,16.602,-999.023,21.484,0
2056.515,989.258,-18.555,-8.789,980.957,95.703,0
2056.519,921.875,0.977,45.898,993.652,54.199,0
2056.522,984.375,0.488,41.016,990.234,-37.598,0
2056.526,-997.070,-6.348,-10.742,866.211,-25.879,0
2056.530,980.469,-6.348,-27.344,847.168,8.789,0
2056.534,-957.031,-6.836,-61.035,773.926,49.316,0
2056.538,595.215,64.941,153.320,835.938,215.332,0
2056.542,320.801,108.398,267.578,432.617,18.066,0
2056.546,626.465,90.820,3.418,-329.590,-77.148,0
2056.550,616.699,123.535,10.254,-297.363,109.863,0
2056.554,293.945,149.414,86.426,-496.094,43.457,0
2056.558,163.574,155.762,-18.066,-959.473,0.000,0
2056.562,343.750,155.273,-65.918,-973.145,15.137,0
2056.565,102.539,152.344,-39.062,-958.496,-13.672,0
2056.569,188.965,146.973,-30.762,-972.656,-16.602,0
2056.573,449.219,136.230,-44.922,-970.215,28.809,0
2056.577,-110.840,155.273,18.555,-970.215,93.262,0
2056.581,-322.266,152.832,18.555,-970.215,-18.555,0
2056.585,-563.477,172.363,74.219,-970.215,139.160,0
2056.589,-992.188,231.934,292.969,-970.215,136.719,0
2056.593,-964.844,191.895,188.965,-970.215,-130.371,0
2056.597,-963.867,174.805,102.539,-970.215,39.551,0
2056.601,-954.102,187.012,153.320,-970.215,26.367,0
2056.604,-1000.000,157.227,70.801,-970.215,-61.523,0
2056.608,-814.453,142.090,22.949,-970.215,-24.414,0
2056.612,-603.516,132.324,8.789,-970.215,14.648,0
2056.616,-905.273,125.977,-5.371,-970.215,53.223,0
2056.620,-992.676,127.930,-5.859,-970.215,60.059,0
2056.624,-956.055,130.371,7.324,-969.727,53.223,0
2056.628,-971.680,132.324,39.551,-970.215,-14.160,0
2056.632,-970.215,127.441,24.902,-971.191,40.039,0
2056.636,-970.215,195.801,240.234,-961.426,204.590,0
2056.640,-970.215,220.703,343.750,-964.355,-32.715,0
2056.644,-970.703,178.223,187.012,-971.680,-57.617,0
2056.647,-968.750,171.875,161.133,-969.238,42.480,0
2056.651,-968.262,137.207,69.336,-970.215,7.324,0
2056.655,-979.004,116.699,16.602,-970.215,39.062,0
2056.659,-882.324,110.840,6.836,-969.238,30.762,0
2056.663,-903.320,103.027,-0.977,-970.703,29.785,0
2056.667,-846.191,100.586,1.953,-971.191,20.020,0
2056.671,-719.727,90.332,-11.230,-946.777,57.617,0
2056.675,-875.000,90.332,6.348,-947.754,71.777,0
2056.679,-628.418,83.496,-7.812,-923.340,-14.648,0
2056.683,-692.871,103.516,107.422,-571.777,139.160,0
2056.687,-966.797,143.066,321.777,-388.184,149.414,0
2056.690,-663.574,126.953,276.855,-514.160,-64.453,0
2056.694,-672.363,108.398,208.008,-377.441,6.836,0
2056.698,-601.562,84.961,151.855,-253.418,-20.020,0
2056.702,-285.645,52.246,51.758,-122.070,-8.789,0
2056.706,-195.801,24.414,13.672,201.172,56.152,0
2056.710,-81.055,-0.977,19.531,534.180,68.848,0
2056.714,-64.941,-16.602,37.109,716.309,50.781,0
2056.718,157.715,-29.785,51.758,919.922,-12.207,0
2056.722,284.180,-42.480,42.969,-992.676,45.898,0
2056.726,230.957,-30.273,84.473,993.164,38.574,0
2056.729,697.266,-36.621,56.152,999.023,36.621,0
2056.733,405.273,19.531,215.332,999.512,217.285,0
2056.737,161.133,68.848,370.605,999.512,34.180,0
2056.741,622.559,34.668,238.770,999.023,-76.660,0
2056.745,743.652,6.836,128.906,-1000.000,-52.734,0
2056.749,967.285,-14.648,30.762,996.094,-28.320,0
2056.753,954.102,0.000,62.500,995.117,13.184,0
2056.757,927.734,7.812,79.102,-1000.000,-60.547,0
2056.761,-991.699,-11.719,-9.277,998.535,4.395,0
2056.765,998.535,-18.066,-30.273,-998.047,36.133,0
2056.769,-999.023,-13.672,-6.348,990.234,-9.277,0
2056.772,978.027,-10.742,-5.859,987.793,25.879,0
2056.776,-975.586,-18.555,-44.434,-1000.000,9.277,0
2056.780,884.277,10.742,14.160,966.797,191.406,0
2056.784,207.031,120.117,357.422,-943.359,313.477,0
2056.788,184.570,151.855,398.926,551.270,-44.434,0
2056.792,351.074,118.652,59.082,-311.035,-103.516,0
2056.796,145.020,133.789,-64.453,-630.859,43.945,0
2056.800,161.133,145.996,-86.914,-877.930,54.199,0
2056.804,-223.145,149.902,-93.262,-975.098,41.016,0
2056.808,-254.883,150.879,-82.031,-964.844,40.039,0
2056.812,-210.938,166.992,-8.301,-969.727,30.273,0
2056.815,-575.684,175.781,34.180,-970.703,-53.223,0
2056.819,-596.680,159.180,-19.043,-970.215,-5.859,0
2056.823,-686.523,146.973,-47.363,-970.215,30.273,0
2056.827,-894.043,151.367,-21.973,-970.215,83.984,0
2056.831,-970.215,187.012,114.746,-970.215,152.832,0
2056.835,-967.773,187.988,148.926,-970.215,0.488,0
2056.839,-968.262,157.227,45.898,-970.215,-43.945,0
2056.843,-970.703,146.973,11.719,-970.215,1.953,0
2056.847,-970.215,141.602,-5.859,-970.215,49.316,0
2056.851,-970.215,137.695,-20.508,-970.215,82.031,0
2056.854,-970.215,134.766,-18.066,-970.215,74.707,0
2056.858,-970.215,137.207,6.348,-970.215,29.297,0
2056.862,-970.215,137.207,26.855,-970.215,1.465,0
2056.866,-970.215,134.766,11.719,-971.191,35.156,0
2056.870,-970.215,152.344,80.566,-961.426,18.555,0
2056.874,-970.703,147.949,90.332,-989.258,-33.691,0
2056.878,-968.262,166.992,142.578,-899.414,156.250,0
2056.882,-966.797,245.117,456.055,-756.348,241.211,0
2056.886,-975.586,240.234,484.375,-898.926,-107.422,0
2056.890,-864.258,162.109,185.059,-979.980,-194.336,0
2056.894,-697.266,125.000,52.734,-967.285,-47.363,0
2056.897,-508.789,113.281,25.391,-925.293,-2.930,0
2056.901,-475.098,94.238,-7.812,-692.871,53.223,0
2056.905,-322.754,71.777,-3.906,-404.297,72.754,0
2056.909,-125.000,48.828,10.254,-104.980,67.871,0
2056.913,-147.461,28.320,30.273,208.008,40.527,0
2056.917,250.977,-5.371,38.086,641.113,42.969,0
2056.921,480.469,-43.457,36.133,986.328,29.785,0
2056.925,391.113,-25.879,109.375,997.070,129.883,0
2056.929,379.395,43.945,329.590,991.211,190.918,0
2056.933,545.898,36.133,317.871,-998.535,-58.105,0
2056.937,885.742,-10.254,137.695,999.023,-88.867,0
2056.940,998.535,-22.949,76.660,999.512,-35.156,0
2056.944,994.629,-23.438,42.480,999.023,-41.504,0
2056.948,997.070,-19.531,22.949,998.047,9.766,0
2056.952,-999.512,-21.484,11.230,999.512,8.789,0
2056.956,999.512,-18.555,12.207,999.023,1.953,0
2056.960,999.512,-15.625,3.418,-1000.000,31.250,0
2056.964,999.512,-9.766,20.020,998.047,-2.441,0
2056.968,998.047,-6.348,29.785,995.605,12.207,0
2056.972,-998.047,1.465,38.086,990.234,72.754,0
2056.976,991.211,52.734,190.430,-988.770,202.637,0
2056.979,978.027,94.238,330.566,931.641,77.148,0
2056.983,997.559,55.176,147.461,695.312,-159.668,0
2056.987,-999.512,47.852,35.645,610.352,31.738,0
2056.991,996.582,62.988,84.961,629.883,57.617,0
2056.995,999.512,51.758,31.250,551.758,-31.250,0
2056.999,999.512,43.945,-39.551,479.492,38.086,0
2057.003,999.512,43.945,-58.105,442.871,80.566,0
2057.007,-1000.000,50.293,-45.898,419.922,65.918,0
2057.011,985.840,55.664,-41.504,294.922,33.203,0
2057.015,-979.004,67.871,-47.852,177.246,41.504,0
2057.019,843.262,99.609,39.062,181.641,67.383,0
2057.022,516.602,127.930,113.770,121.094,129.883,0
2057.026,160.645,191.406,257.324,-278.809,152.832,0
2057.030,-88.867,218.262,219.727,-876.465,-64.453,0
2057.034,118.652,184.082,-0.977,-991.699,-76.660,1
2057.038,254.395,167.969,-50.293,-948.242,40.527,0
2057.042,-54.199,163.086,-54.688,-974.609,27.832,0
2057.046,-119.629,180.176,11.230,-970.215,27.832,0
2057.050,-30.273,182.129,40.527,-970.215,12.207,0
2057.054,-150.391,163.574,-1.953,-970.215,-7.812,0
2057.058,-179.688,162.109,4.395,-970.215,-16.602,0
2057.062,-202.148,158.203,-5.859,-970.215,21.973,0
2057.065,-404.297,177.246,61.035,-970.215,147.461,0
2057.069,-662.598,186.523,117.188,-970.215,70.801,0
2057.073,-794.434,211.914,197.754,-970.215,142.090,0
2057.077,-891.113,238.770,310.547,-970.215,86.426,0
2057.081,-858.887,186.035,156.738,-970.215,-137.695,0
2057.085,-565.430,160.156,48.828,-970.215,-52.246,0
2057.089,-491.699,152.344,39.551,-970.215,-27.344,0
2057.093,-775.391,139.648,4.395,-970.215,31.250,0
2057.097,-709.961,135.742,-6.348,-970.215,65.918,0
2057.101,-826.660,132.324,-0.488,-970.215,38.086,0
2057.104,-987.305,144.043,49.316,-970.215,82.031,0
2057.108,-962.402,152.832,106.934,-970.215,66.406,0
2057.112,-975.098,165.039,154.785,-969.727,46.387,0
2057.116,-953.613,168.945,180.176,-970.703,-59.082,0
2057.120,-927.734,145.996,105.469,-969.727,19.043,0
2057.124,-953.125,186.523,249.512,-964.844,212.402,0
2057.128,-779.785,176.758,276.855,-955.566,-102.539,0
2057.132,-441.406,114.746,54.688,-990.234,-93.750,0
2057.136,-114.258,88.867,-9.766,-800.781,66.406,0
2057.140,-69.336,59.082,6.348,-373.535,35.156,0
2057.144,81.543,34.668,14.160,-17.090,80.078,0
2057.147,112.793,18.066,70.801,392.578,86.426,0
2057.151,38.574,-0.488,100.586,618.164,-20.020,0
2057.155,457.520,-26.855,62.988,839.355,0.488,0
2057.159,425.293,-20.508,132.324,-986.816,78.125,0
2057.163,220.215,21.973,256.836,993.164,54.688,0
2057.167,611.816,9.766,199.219,988.281,-88.867,0
2057.171,416.016,29.785,242.188,-980.957,61.035,0
2057.175,179.199,74.707,362.793,911.621,60.547,0
2057.179,565.430,26.367,148.926,750.977,-115.234,0
2057.183,725.098,2.441,13.184,817.383,6.836,0
2057.187,635.742,-8.301,2.930,948.242,41.504,0
2057.190,500.977,-20.020,-20.020,988.770,64.453,0
2057.194,755.371,-21.973,-33.203,986.328,85.449,0
2057.198,721.191,-25.879,-44.434,-995.605,100.098,0
2057.202,670.898,-22.461,-53.223,969.727,108.887,0
2057.206,849.121,4.883,50.781,998.047,81.055,0
2057.210,752.441,24.414,139.160,957.031,-19.531,0
2057.214,916.992,8.789,33.203,747.070,-88.867,0
2057.218,-897.461,7.324,-10.742,930.176,89.355,0
2057.222,-194.336,76.660,214.844,744.629,248.047,0
2057.226,-283.691,140.137,244.141,-268.555,-30.762,0
2057.229,936.035,116.211,-11.230,-663.574,-87.402,0
2057.233,18.066,110.840,-98.145,-796.875,48.828,0
2057.237,110.352,136.719,-70.801,-1000.000,13.672,0
2057.241,-960.449,131.836,-78.613,-867.188,16.113,0
2057.245,933.105,103.516,-74.219,-468.750,28.320,0
2057.249,448.730,88.379,-47.852,-397.949,30.273,0
2057.253,275.391,121.582,37.109,-440.918,72.266,0
2057.257,182.129,149.414,141.602,-431.152,27.832,0
2057.261,-58.105,152.832,87.891,-778.320,-16.113,0
2057.265,95.215,134.277,-50.781,-999.512,-20.508,0
2057.269,-252.441,172.363,85.449,-905.273,201.172,0
2057.272,-791.992,216.797,274.414,-920.898,97.656,0
2057.276,-331.543,163.086,108.398,-980.469,-157.715,0
2057.280,-43.945,131.348,-22.949,-967.285,29.785,0
2057.284,-463.867,151.367,52.246,-970.703,83.008,0
2057.288,-229.492,149.414,79.102,-968.262,-39.062,0
2057.292,73.730,119.141,-7.812,-968.262,-23.438,0
2057.296,-152.344,112.305,-32.715,-980.469,41.016,0
2057.300,-336.914,132.324,41.504,-862.305,168.945,0
2057.304,-697.266,145.508,104.492,-849.609,138.672,0
2057.308,-806.152,135.254,61.523,-977.539,-4.883,0
2057.312,-865.234,115.234,-3.418,-971.191,-8.789,0
2057.315,-971.680,124.023,14.160,-966.309,160.156,0
2057.319,-966.797,190.430,237.305,-968.262,224.121,0
2057.323,-969.238,177.734,223.145,-969.727,-60.547,0
2057.327,-970.215,127.441,43.945,-970.703,-62.012,0
2057.331,-970.215,121.582,27.344,-969.727,8.789,0
2057.335,-970.215,113.770,18.066,-970.215,-23.438,0
2057.339,-970.215,124.512,45.898,-970.215,30.273,0
2057.343,-970.215,136.719,86.914,-970.215,64.453,0
2057.347,-970.703,149.902,133.301,-970.215,52.246,0
2057.351,-966.797,154.785,164.062,-970.215,-17.578,0
2057.354,-975.098,128.418,89.355,-970.215,-43.945,0
2057.358,-960.938,124.023,71.777,-956.055,53.223,0
2057.362,-865.723,102.051,0.000,-1000.000,15.137,0
2057.366,-936.523,134.277,139.160,-757.812,181.641,0
2057.370,-729.980,162.598,315.918,-667.480,63.965,0
2057.374,-187.988,99.121,98.633,-826.172,-125.000,0
2057.378,141.113,52.246,-12.695,-408.203,26.855,0
2057.382,236.328,13.184,7.812,129.395,28.320,0
2057.386,435.059,-30.762,17.578,701.172,7.812,0
2057.390,580.078,-63.965,17.578,-992.676,37.598,0
2057.394,451.660,-44.922,101.074,988.770,74.707,0
2057.397,576.660,-20.020,173.828,993.652,55.664,0
2057.401,591.309,-24.902,144.043,-999.512,25.879,0
2057.405,754.395,-39.551,69.336,999.512,9.277,0
2057.409,-975.098,-66.406,-28.809,999.512,8.301,0
2057.413,988.770,-51.758,-4.395,999.512,180.176,0
2057.417,946.777,20.020,227.539,995.117,208.496,0
2057.421,987.305,12.207,219.238,997.559,-118.652,0
2057.425,-993.652,-32.227,30.762,-999.512,-79.102,0
2057.429,995.605,-33.691,2.930,998.047,0.977,0
2057.433,-999.512,-32.715,-1.953,-997.559,-15.137,0
2057.437,999.512,-36.133,-31.250,989.258,32.227,0
2057.440,999.512,-10.254,43.457,983.887,76.172,0
2057.444,999.512,14.160,128.906,-1000.000,7.324,0
2057.448,999.512,-7.812,51.270,997.070,-50.781,0
2057.452,999.512,-23.926,-33.691,975.098,20.020,0
2057.456,999.512,-11.230,-35.645,852.051,42.480,0
2057.460,999.512,14.160,-19.043,609.375,2.441,0
2057.464,999.512,78.613,159.180,731.934,138.184,0
2057.468,999.512,109.863,269.531,549.316,16.113,0
2057.472,999.512,79.102,35.156,-84.473,-139.648,0
2057.476,999.512,71.777,-110.352,-240.234,70.801,0
2057.479,999.512,75.684,-119.141,-376.953,73.730,0
2057.483,999.512,89.844,-117.188,-548.340,26.855,0
2057.487,999.512,117.188,-32.227,-481.445,77.148,0
2057.491,999.512,131.348,32.715,-487.793,11.719,0
2057.495,999.512,125.488,-28.320,-755.859,-41.504,0
2057.499,-999.023,127.930,-90.332,-941.406,40.039,0
2057.503,982.910,132.324,-101.074,-955.078,84.473,0
2057.507,-963.379,126.465,-92.285,-982.422,-24.414,0
2057.511,870.117,146.484,-27.832,-925.293,114.746,0
2057.515,658.203,208.496,198.242,-869.629,180.664,0
2057.519,927.734,200.684,218.750,-968.262,-132.324,0
2057.522,-975.098,146.484,39.551,-973.145,-123.047,0
2057.526,984.863,111.328,-57.617,-963.379,-10.254,0
2057.530,-998.535,92.285,-100.098,-979.004,44.922,0
2057.534,999.512,104.004,-38.574,-886.230,113.281,0
2057.538,999.512,107.422,30.762,-802.246,65.918,0
2057.542,999.512,85.938,-29.297,-866.699,-10.254,0
2057.546,999.512,69.336,-97.656,-916.504,19.043,0
2057.550,999.512,62.500,-109.375,-944.336,45.898,0
2057.554,999.512,64.941,-90.820,-953.613,35.156,0
2057.558,999.512,63.477,-99.609,-994.629,-4.395,0
2057.562,999.512,121.094,112.793,-810.547,112.793,0
2057.565,999.512,153.320,268.066,-737.305,19.043,0
2057.569,999.512,108.887,97.656,-942.871,-119.141,0
2057.573,999.512,93.750,11.719,-978.516,-39.062,0
2057.577,999.512,98.145,30.273,-870.605,21.484,0
2057.581,999.512,108.887,110.352,-666.504,36.621,0
2057.585,999.512,104.004,153.320,-530.273,-9.277,0
2057.589,999.512,79.102,94.238,-580.566,-77.148,2
2057.593,999.512,61.035,2.441,-726.562,-31.738,0
2057.597,999.512,46.875,-45.898,-728.027,44.922,0
2057.601,999.512,35.645,-55.176,-676.270,45.898,0
2057.604,999.512,20.020,-80.078,-677.734,-11.230,0
2057.608,999.512,25.391,-33.691,-443.848,157.227,0
2057.612,999.512,57.617,170.410,-283.203,193.848,0
2057.616,999.512,34.180,100.098,-635.742,-89.844,0
2057.620,999.512,0.488,-116.699,-830.566,-15.137,0
2057.624,999.512,-8.789,-168.457,-902.832,48.340,0
2057.628,999.512,5.371,-106.445,-974.609,60.059,0
2057.632,999.512,5.371,-76.660,-968.262,24.414,0
2057.636,999.512,-83.984,-235.840,-969.238,-50.293,0
2057.640,999.512,-295.410,-631.836,-970.215,-96.680,0
2057.644,999.512,-481.445,-944.824,-970.215,-72.266,0
2057.647,999.512,-537.598,-962.891,-970.215,16.602,0
2057.651,999.512,-507.812,-958.496,-970.215,62.012,0
2057.655,999.512,-456.543,-952.637,-970.215,79.590,0
2057.659,999.512,-351.074,-658.691,-970.215,253.906,0
2057.663,999.512,-267.090,-413.086,-970.215,62.012,0
2057.667,999.512,-277.832,-524.902,-970.215,-127.930,0
2057.671,999.512,-268.555,-582.520,-970.215,41.992,0
2057.675,-998.047,-205.078,-449.707,-970.215,144.043,0
2057.679,990.234,-139.648,-292.969,-970.215,42.480,0
2057.683,991.211,-136.230,-315.430,-970.215,-51.270,0
2057.687,979.492,-127.930,-335.938,-970.215,32.715,0
2057.690,634.277,-81.543,-271.484,-970.215,84.961,0
2057.694,-353.027,-14.648,-138.672,-970.215,62.012,0
2057.698,-1000.000,42.969,-28.809,-970.215,11.230,0
2057.702,-947.266,66.406,-31.738,-970.215,20.996,0
2057.706,-959.961,121.582,75.195,-970.215,214.355,0
2057.710,-972.656,226.562,364.746,-970.215,175.293,0
2057.714,-970.215,256.836,376.465,-970.215,-97.656,0
2057.718,-970.215,244.629,238.770,-970.215,20.996,0
2057.722,-970.215,287.598,351.074,-970.703,73.242,0
2057.726,-970.215,342.773,505.859,-968.262,16.113,0
2057.729,-970.215,347.656,471.680,-966.797,6.348,0
2057.733,-970.215,351.562,411.133,-971.680,54.688,0
2057.737,-970.215,374.512,459.473,-840.820,71.289,0
2057.741,-970.215,371.094,499.023,-631.836,37.109,0
2057.745,-970.215,347.656,500.488,-403.320,48.828,0
2057.749,-970.215,331.543,516.113,-119.629,73.730,0
2057.753,-970.215,323.242,544.922,106.445,100.098,0
2057.757,-978.027,351.074,745.117,383.301,164.551,0
2057.761,-934.082,346.191,780.762,198.730,-41.992,0
2057.765,-997.070,270.508,456.055,-408.203,-147.461,0
2057.769,-835.938,250.488,332.520,-822.754,62.500,0
2057.772,342.285,242.188,311.035,-968.262,-32.227,0
2057.776,-943.848,174.805,153.809,-962.402,-111.328,0
2057.780,963.379,116.211,62.988,-965.820,-63.477,0
2057.784,993.652,68.359,-14.648,-970.215,-68.848,0
2057.788,-997.070,6.348,-159.180,-970.703,43.457,0
2057.792,999.512,-47.852,-247.559,-969.727,50.781,0
2057.796,999.512,-73.730,-268.066,-970.215,20.996,0
2057.800,999.512,-118.652,-348.145,-970.215,-16.113,0
2057.804,999.512,-140.625,-336.426,-970.215,149.902,0
2057.808,999.512,-104.980,-140.625,-970.215,105.469,0
2057.812,999.512,-138.672,-199.707,-970.215,-154.297,0
2057.815,999.512,-188.477,-348.633,-970.215,10.254,0
2057.819,999.512,-195.312,-348.633,-970.215,48.340,0
2057.823,999.512,-222.168,-391.113,-970.215,-22.461,0
2057.827,999.512,-273.926,-514.648,-970.215,-31.250,0
2057.831,999.512,-288.086,-566.406,-970.215,24.902,0
2057.835,999.512,-286.133,-558.105,-970.215,14.160,0
2057.839,999.512,-294.434,-572.266,-970.215,-10.742,0
2057.843,999.512,-282.715,-553.223,-970.215,6.836,0
2057.847,999.512,-271.973,-544.434,-970.215,34.180,0
2057.851,999.512,-270.996,-572.754,-970.215,70.312,0
2057.854,999.512,-182.129,-319.336,-970.215,190.918,0
2057.858,999.512,-136.719,-191.895,-970.215,23.438,0
2057.862,999.512,-163.086,-312.988,-970.215,-36.621,0
2057.866,999.512,-145.996,-304.688,-970.215,4.395,0
2057.870,999.512,-131.348,-323.242,-970.215,38.574,0
2057.874,999.512,-104.492,-282.227,-970.215,82.520,0
2057.878,-998.535,-94.238,-297.852,-970.215,14.160,0
2057.882,995.605,-73.730,-291.504,-970.215,67.871,0
2057.886,952.637,-30.273,-184.082,-970.215,46.387,0
2057.890,-912.109,9.766,-122.559,-970.215,13.672,0
2057.894,233.398,58.105,-74.707,-970.215,61.523,0
2057.897,-967.285,100.098,-12.695,-970.215,4.395,0
2057.901,-970.215,182.617,166.016,-970.215,172.363,0
2057.905,-939.941,290.039,449.219,-970.215,178.711,0
2057.909,-978.027,317.871,481.934,-970.215,-39.551,0
2057.913,-970.215,356.934,494.629,-970.215,48.340,0
2057.917,-970.215,398.438,543.457,-970.215,11.719,0
2057.921,-970.215,413.086,513.672,-970.215,-33.691,0
2057.925,-970.215,442.383,509.766,-972.168,55.664,0
2057.929,-970.215,504.395,608.887,-961.426,139.160,0
2057.933,-970.215,553.711,720.215,-964.355,55.664,0
2057.937,-970.215,596.191,781.738,-910.645,-25.879,0
2057.940,-970.215,651.855,905.273,-485.840,-2.441,0
2057.944,-970.215,670.410,996.094,453.613,-6.836,0
2057.948,-970.215,743.652,998.535,-976.074,28.320,0
2057.952,-970.215,924.316,997.070,980.469,196.289,0
2057.956,-970.215,-993.164,-1000.000,990.234,50.293,0
2057.960,-970.215,994.141,999.512,-997.559,-146.484,0
2057.964,-970.215,999.023,999.512,999.512,-78.125,0
2057.968,-970.215,999.512,999.512,999.512,-19.043,0
2057.972,-970.215,999.512,999.512,999.512,-34.180,0
2057.976,-970.215,999.512,999.512,999.512,-60.547,0
2057.979,-970.215,999.512,999.512,999.512,-51.270,0
2057.983,-970.215,999.512,999.512,999.512,-31.738,0
2057.987,-970.215,997.559,999.512,999.512,37.598,0
2057.991,-970.215,-998.047,999.512,999.512,62.012,0
2057.995,-970.215,992.676,999.512,999.512,-78.125,0
2057.999,-970.215,959.473,999.512,999.512,79.590,0
2058.003,-970.215,970.703,999.512,999.512,252.441,0
2058.007,-970.215,920.410,999.512,999.512,-76.172,0
2058.011,-970.215,806.152,997.070,999.512,-220.703,0
2058.015,-970.215,740.234,-998.047,999.512,-85.938,0
2058.019,-970.215,684.570,978.027,999.512,-16.113,0
2058.022,-970.215,627.930,898.926,999.512,20.508,0
2058.026,-970.215,575.684,809.082,999.512,54.199,0
2058.030,-970.215,527.344,727.539,999.512,75.684,0
2058.034,-970.215,480.469,669.434,999.512,44.922,0
2058.038,-970.215,437.012,618.164,999.512,36.621,0
2058.042,-970.215,384.766,528.809,-1000.000,51.270,0
2058.046,-974.609,359.863,501.953,996.094,134.277,0
2058.050,-943.359,365.234,577.148,995.605,167.480,0
2058.054,-984.375,329.102,555.176,-989.258,49.805,0
2058.058,-825.684,284.668,444.824,805.664,-22.461,0
2058.062,214.355,237.305,292.480,771.973,-7.324,0
2058.065,-994.629,175.781,187.500,-996.094,47.852,0
2058.069,982.422,136.230,149.414,-996.582,22.949,0
2058.073,984.863,109.863,108.887,992.188,0.000,0
2058.077,-996.094,82.031,66.406,-999.023,3.418,0
2058.081,999.512,61.523,31.250,999.512,4.883,0
2058.085,999.512,41.016,-5.859,999.512,22.461,0
2058.089,999.512,24.414,-28.809,999.512,21.973,0
2058.093,999.512,0.977,-86.914,998.535,31.250,0
2058.097,999.512,27.832,7.324,975.098,174.316,0
2058.101,999.512,103.516,302.246,-959.473,215.820,0
2058.104,999.512,113.281,313.965,672.852,-2.930,0
2058.108,999.512,78.613,40.527,-10.254,-108.887,0
2058.112,999.512,46.875,-185.059,-379.883,-23.926,0
2058.116,999.512,36.621,-282.715,-704.590,29.297,0
2058.120,999.512,33.203,-306.641,-923.340,12.207,0
2058.124,999.512,14.648,-351.562,-970.215,62.988,0
2058.128,999.512,-1.465,-363.770,-965.820,50.293,0
2058.132,999.512,-17.090,-360.352,-970.703,26.367,0
2058.136,999.512,-34.668,-374.023,-967.285,52.734,0
2058.140,999.512,-48.828,-387.207,-972.656,55.664,0
2058.144,999.512,-41.504,-341.309,-973.145,181.152,0
2058.147,999.512,13.672,-102.051,-891.113,212.891,0
2058.151,999.512,-1.465,-108.398,-926.758,-24.414,0
2058.155,999.512,-63.477,-330.566,-983.398,-65.430,0
2058.159,999.512,-79.102,-356.445,-964.844,-29.297,0
2058.163,999.512,-89.355,-371.582,-971.191,11.230,0
2058.167,999.512,-81.543,-338.379,-963.379,115.723,0
2058.171,999.512,-83.496,-307.129,-967.285,-16.602,0
2058.175,999.512,-102.539,-358.887,-972.168,-50.293,0
2058.179,999.512,-111.816,-385.742,-966.797,41.992,0
2058.183,999.512,-122.070,-388.184,-964.844,46.875,0
2058.187,999.512,-128.906,-397.949,-975.586,73.730,0
2058.190,999.512,-126.465,-337.402,-802.246,107.910,0
2058.194,999.512,-101.074,-147.461,-472.656,166.992,0
2058.198,999.512,-85.938,-20.508,-415.039,44.434,0
2058.202,999.512,-127.441,-181.641,-736.816,-115.234,0
2058.206,999.512,-159.668,-348.145,-908.691,-46.875,0
2058.210,999.512,-177.734,-394.043,-800.781,1.465,0
2058.214,999.512,-191.895,-401.855,-718.750,15.137,0
2058.218,999.512,-201.172,-391.113,-633.789,-12.207,1
2058.222,999.512,-211.426,-407.715,-620.117,48.828,0
2058.226,999.512,-206.055,-360.352,-469.727,95.703,0
2058.229,999.512,-220.703,-341.309,-236.328,12.207,0
2058.233,999.512,-241.211,-389.160,-252.441,18.066,0
2058.237,999.512,-230.957,-312.988,-8.789,75.195,0
2058.241,999.512,-221.191,-209.961,217.285,53.711,0
2058.245,999.512,-182.617,-40.527,280.762,51.270,0
2058.249,999.512,-183.105,-54.688,101.074,-141.113,0
2058.253,999.512,-222.656,-302.246,-219.238,-132.812,0
2058.257,999.512,-231.445,-378.418,-165.039,3.906,0
2058.261,999.512,-234.375,-396.484,-166.016,33.203,0
2058.265,999.512,-231.934,-397.949,-221.191,29.785,0
2058.269,999.512,-238.281,-411.621,-85.449,52.246,0
2058.272,999.512,-244.629,-415.527,-5.859,79.102,0
2058.276,999.512,-244.141,-387.207,50.293,37.598,0
2058.280,999.512,-253.418,-395.020,115.723,53.223,0
2058.284,999.512,-236.328,-313.477,221.680,107.422,0
2058.288,999.512,-213.379,-211.914,326.660,-9.277,0
2058.292,999.512,-182.617,-122.070,477.051,115.723,0
2058.296,999.512,-163.086,-35.156,559.082,109.863,0
2058.300,999.512,-198.730,-203.613,137.207,-125.977,0
2058.304,999.512,-206.543,-360.352,-124.023,7.324,0
2058.308,999.512,-198.730,-383.789,-65.918,47.363,0
2058.312,999.512,-197.266,-384.277,-77.637,39.062,0
2058.315,999.512,-195.801,-389.160,-103.516,55.176,0
2058.319,999.512,-197.754,-392.578,-40.039,91.797,0
2058.323,-999.512,-194.824,-389.648,-64.941,101.074,0
2058.327,990.723,-179.199,-355.469,-127.930,28.809,0
2058.331,-974.609,-147.461,-244.629,8.789,48.828,0
2058.335,896.484,-126.953,-175.781,-136.719,26.367,0
2058.339,866.211,-105.957,-229.492,-453.613,82.031,0
2058.343,-983.887,-58.594,-59.570,-124.512,186.523,0
2058.347,654.785,-50.781,-22.949,-497.559,-88.379,0
2058.351,750.488,-58.105,-243.164,-1000.000,-125.488,0
2058.354,-949.707,-68.359,-298.340,-794.434,0.000,0
2058.358,983.887,-102.051,-311.523,-516.113,40.527,0
2058.362,999.023,-114.746,-318.359,-540.527,56.152,0
2058.366,999.512,-105.957,-291.504,-458.496,18.066,0
2058.370,999.512,-110.840,-274.414,-282.227,14.160,0
2058.374,999.512,-117.676,-276.367,-210.938,42.969,0
2058.378,-999.512,-100.586,-193.359,61.523,147.461,0
2058.382,991.211,-89.844,-86.914,260.254,67.383,0
2058.386,-979.492,-115.234,-189.941,70.312,-58.594,0
2058.390,926.270,-76.660,-110.840,232.910,178.711,0
2058.394,867.676,-29.785,86.426,329.102,113.770,0
2058.397,-998.535,-59.082,-104.004,-206.055,-80.566,0
2058.401,-996.094,-46.875,-163.574,-286.133,24.414,0
2058.405,993.652,-42.480,-140.625,-233.398,-40.039,0
2058.409,999.023,-56.641,-224.121,-367.676,27.344,0
2058.413,-993.652,-42.480,-188.965,-274.902,77.148,0
2058.417,937.988,-39.551,-181.152,-365.723,24.414,0
2058.421,983.398,-38.086,-223.145,-525.391,43.945,0
2058.425,864.746,-11.230,-131.836,-371.094,88.379,0
2058.429,658.203,9.277,-46.387,-411.621,32.715,0
2058.433,951.660,-4.395,-130.371,-637.207,-69.824,0
2058.437,944.336,-4.883,-177.246,-562.988,125.000,0
2058.440,620.605,52.246,73.242,-320.312,211.914,0
2058.444,878.418,45.410,94.238,-500.000,-85.938,0
2058.448,-960.449,-0.488,-138.184,-643.555,-53.223,0
2058.452,979.980,-13.184,-156.738,-396.973,24.414,0
2058.456,-997.559,-25.879,-146.484,-306.641,23.926,0
2058.460,999.512,-18.555,-88.379,-134.766,71.777,0
2058.464,999.512,-27.832,-50.293,86.426,-14.648,0
2058.468,999.512,-49.805,-117.676,116.699,17.578,0
2058.472,999.512,-36.133,-35.645,489.258,110.352,0
2058.476,999.512,-34.180,50.293,628.418,12.207,0
2058.479,999.512,-49.316,-20.996,481.934,-39.551,0
2058.483,999.512,-67.871,-107.910,559.082,-25.879,0
2058.487,999.512,-33.203,40.039,811.523,177.734,0
2058.491,999.512,14.648,248.535,913.574,69.336,0
2058.495,999.512,-16.602,68.359,494.629,-143.555,0
2058.499,999.512,-25.879,-82.031,348.633,33.691,0
2058.503,999.512,-23.438,-83.496,478.516,50.781,0
2058.507,999.512,-17.578,-71.777,424.316,14.648,0
2058.511,999.512,-9.766,-61.523,426.758,9.277,0
2058.515,999.512,-10.254,-79.590,351.074,49.316,0
2058.519,999.512,17.578,-14.648,381.836,104.980,0
2058.522,-1000.000,42.969,117.676,663.574,44.922,0
2058.526,995.605,35.645,115.723,616.211,-20.020,0
2058.530,-994.629,18.066,-1.465,424.316,-54.199,0
2058.534,988.770,24.414,-39.062,417.480,139.648,0
2058.538,938.965,87.891,198.730,501.465,211.914,0
2058.542,986.816,89.355,202.148,172.852,-105.469,0
2058.546,-993.652,62.988,-22.461,-209.961,-76.172,0
2058.550,995.117,73.242,-55.664,-241.699,5.371,0
2058.554,-999.512,74.707,-60.547,-358.887,3.418,0
2058.558,999.512,80.566,-79.102,-522.949,32.227,0
2058.562,999.512,84.473,-77.148,-468.750,17.578,0
2058.565,998.535,104.492,19.043,-337.402,74.707,0
2058.569,-1000.000,121.582,102.051,-237.305,16.602,0
2058.573,995.117,104.004,8.301,-392.578,-25.391,0
2058.577,950.195,118.164,2.441,-527.344,69.336,0
2058.581,958.496,123.535,21.484,-540.039,0.000,0
2058.585,328.613,163.086,119.141,-580.078,160.156,0
2058.589,-53.223,219.727,255.859,-785.156,115.234,0
2058.593,206.055,187.012,109.863,-992.188,-174.316,0
2058.597,-143.555,173.828,33.691,-961.426,-89.844,0
2058.601,0.977,168.457,8.789,-968.262,3.418,0
2058.604,6.348,158.203,-9.277,-970.703,11.230,0
2058.608,-392.090,156.250,-12.207,-970.215,33.203,0
2058.612,-601.562,183.594,78.613,-970.215,123.047,0
2058.616,-823.730,200.684,165.039,-970.215,17.090,0
2058.620,-746.582,175.781,87.891,-970.215,-28.809,0
2058.624,-804.688,169.922,67.383,-970.215,62.988,0
2058.628,-703.125,157.715,42.480,-970.215,-9.277,0
2058.632,-681.641,160.645,43.945,-970.215,147.461,0
2058.636,-1000.000,225.586,292.969,-970.215,183.594,0
2058.640,-680.176,208.984,276.367,-970.215,-103.516,0
2058.644,-375.488,143.555,37.598,-970.215,4.395,0
2058.647,-426.270,135.742,0.977,-970.215,104.980,0
2058.651,-224.609,131.836,9.766,-965.332,60.547,0
2058.655,-260.742,130.371,21.484,-979.004,33.203,0
2058.659,-239.258,159.180,124.023,-908.691,30.273,0
2058.663,-69.824,162.109,178.711,-792.480,-20.508,0
2058.667,180.664,128.418,105.469,-661.621,-55.664,0
2058.671,619.141,90.332,62.012,-267.090,16.113,0
2058.675,908.691,45.898,60.059,321.289,69.336,0
2058.679,993.652,-11.719,38.086,877.441,38.574,0
2058.683,995.605,18.555,213.379,-986.816,217.285,0
2058.687,997.559,65.430,387.695,982.422,81.543,0
2058.690,-1000.000,8.301,208.984,-998.535,-166.992,0
2058.694,999.512,6.348,163.574,997.559,-12.207,0
2058.698,999.512,15.137,181.152,999.023,-36.621,0
2058.702,999.512,-11.230,71.289,999.512,1.465,0
2058.706,999.512,13.672,134.277,999.512,96.191,0
2058.710,999.512,36.133,216.309,999.023,-8.789,0
2058.714,999.512,18.555,125.000,998.047,-49.316,0
2058.718,999.512,8.789,62.012,999.023,11.230,0
2058.722,999.512,13.672,67.383,-999.023,17.578,0
2058.726,999.512,14.160,44.922,992.676,-29.785,0
2058.729,999.512,36.621,73.730,-995.117,152.832,0
2058.733,999.512,106.445,303.711,974.609,189.453,0
2058.737,-1000.000,102.051,264.648,789.551,-93.262,0
2058.741,997.559,65.430,52.734,659.180,-13.184,0
2058.745,985.352,66.406,32.227,589.355,32.715,0
2058.749,-962.402,62.988,15.625,594.238,49.805,0
2058.753,759.277,88.379,85.449,583.008,115.234,0
2058.757,595.215,128.418,186.035,372.070,49.316,0
2058.761,707.031,146.484,204.590,203.125,-8.301,0
2058.765,537.109,149.414,131.836,-98.633,-33.691,0
2058.769,691.406,150.879,40.527,-361.816,-5.859,0
2058.772,537.598,163.086,34.180,-523.926,28.320,0
2058.776,341.309,170.898,-7.812,-775.391,4.395,0
2058.780,2.441,231.445,170.410,-761.230,185.547,0
2058.784,-503.906,274.902,333.008,-854.492,75.684,0
2058.788,-185.547,225.098,131.348,-991.699,-90.820,0
2058.792,-183.105,202.148,45.898,-961.914,16.113,0
2058.796,-446.777,194.336,29.785,-970.703,72.266,0
2058.800,-649.414,208.008,87.402,-970.215,136.230,0
2058.804,-937.012,236.328,212.891,-970.215,45.410,0
2058.808,-976.074,216.797,152.344,-970.215,-14.648,0
2058.812,-960.938,208.984,100.586,-970.215,97.656,0
2058.815,-972.168,221.680,154.297,-970.215,93.750,0
2058.819,-970.215,208.984,135.254,-970.215,-36.621,0
2058.823,-970.215,198.242,100.586,-970.215,-101.074,0
2058.827,-970.215,217.285,149.414,-970.215,71.777,0
2058.831,-970.215,274.414,347.656,-970.215,173.340,0
2058.835,-970.215,260.742,333.984,-970.215,-87.402,0
2058.839,-970.215,206.055,150.391,-970.215,-96.191,0
2058.843,-970.215,181.641,72.266,-970.215,34.180,0
2058.847,-970.215,192.871,124.023,-970.215,99.609,0
2058.851,-970.215,213.379,224.121,-970.215,26.855,0
2058.854,-970.215,201.660,201.660,-970.215,-92.285,1
2058.858,-970.215,177.246,115.234,-970.215,-67.871,0
2058.862,-970.215,171.875,102.539,-970.215,-40.039,0
2058.866,-970.215,166.992,83.008,-969.238,-22.949,0
2058.870,-970.215,174.805,110.352,-960.938,76.660,0
2058.874,-971.680,181.641,143.066,-1000.000,15.137,0
2058.878,-961.914,209.473,268.066,-795.410,150.879,0
2058.882,-983.887,222.656,367.188,-762.695,78.613,0
2058.886,-942.383,168.457,158.691,-986.328,-112.793,0
2058.890,-779.785,149.414,64.453,-983.887,1.953,0
2058.894,-889.160,159.180,141.602,-784.180,85.449,0
2058.897,-734.375,142.090,189.453,-536.133,43.945,0
2058.901,-386.719,107.422,126.953,-483.398,-76.172,0
2058.905,-117.188,77.148,68.848,-171.875,0.488,0
2058.909,277.832,28.320,44.434,426.758,77.637,0
2058.913,549.805,-16.113,57.129,901.855,51.758,0
2058.917,870.605,-33.203,73.730,-995.117,47.363,0
2058.921,-985.352,-47.852,31.738,986.816,16.602,0
2058.925,988.770,-25.879,76.660,-999.023,161.621,0
2058.929,999.512,51.270,318.848,999.512,244.141,0
2058.933,999.512,46.387,328.613,999.512,-66.895,0
2058.937,999.512,-12.207,113.281,999.512,-93.750,0
2058.940,999.512,-5.371,99.121,999.512,73.730,0
2058.944,999.512,4.883,127.930,999.512,43.457,0
2058.948,999.512,-20.996,36.133,999.512,15.625,0
2058.952,999.512,-22.949,3.906,999.512,14.648,0
2058.956,999.512,-17.090,11.719,999.023,-9.277,0
2058.960,999.512,-17.090,5.859,999.512,-10.742,0
2058.964,999.512,-11.719,-1.465,999.512,23.926,0
2058.968,999.512,-4.395,0.000,995.605,39.551,0
2058.972,999.512,-12.207,-40.039,983.887,41.016,0
2058.976,999.512,51.270,153.320,-973.145,210.449,0
2058.979,999.512,93.750,284.668,839.355,38.574,0
2058.983,999.512,55.664,55.664,501.953,-108.887,0
2058.987,999.512,65.918,24.902,509.277,87.891,0
2058.991,999.512,81.543,106.445,585.449,85.449,0
2058.995,999.512,77.148,94.727,501.953,-34.668,0
2058.999,999.512,61.035,-11.719,330.566,-23.438,0
2059.003,999.512,58.594,-64.941,201.172,45.898,0
2059.007,999.512,69.824,-62.500,24.902,44.922,0
2059.011,999.512,78.125,-82.520,-147.949,60.059,0
2059.015,998.047,83.984,-75.195,-148.438,81.543,0
2059.019,-998.535,79.102,-96.191,-283.691,25.391,0
2059.022,995.605,113.281,-10.254,-235.840,166.016,0
2059.026,979.980,172.363,224.121,-160.645,158.691,0
2059.030,996.094,157.227,122.070,-631.348,-93.750,0
2059.034,-998.047,158.691,39.551,-647.461,6.348,0
2059.038,994.629,164.551,111.328,-511.230,-38.574,0
2059.042,996.582,143.066,21.973,-739.746,-85.449,0
2059.046,-982.910,160.156,25.879,-754.395,68.848,0
2059.050,810.059,176.758,93.750,-775.391,27.344,0
2059.054,817.383,160.645,21.973,-955.078,-47.363,0
2059.058,835.938,145.508,-46.387,-976.562,11.719,0
2059.062,364.746,149.902,-27.344,-963.379,22.461,0
2059.065,231.934,157.715,-10.254,-971.680,20.508,0
2059.069,72.754,150.391,-42.480,-970.215,53.711,0
2059.073,-666.016,214.355,173.828,-970.215,212.402,0
2059.077,-849.609,240.234,304.688,-970.215,29.297,0
2059.081,-794.922,199.219,169.434,-970.215,-52.246,0
2059.085,-990.234,207.031,192.383,-970.215,53.711,0
2059.089,-966.797,183.594,134.766,-970.215,-39.062,0
2059.093,-968.262,155.273,41.016,-970.215,-6.836,0
2059.097,-970.703,145.996,29.785,-970.215,37.109,0
2059.101,-970.215,139.648,24.902,-970.215,16.602,0
2059.104,-968.262,147.461,48.340,-970.215,66.895,0
2059.108,-965.332,161.133,116.211,-971.680,48.828,0
2059.112,-994.629,149.902,96.680,-961.914,-1.953,0
2059.116,-819.824,122.559,9.277,-991.699,18.066,0
2059.120,-829.102,146.484,91.797,-897.949,189.941,0
2059.124,-936.523,200.684,322.754,-833.984,144.043,0
2059.128,-672.852,183.594,293.457,-974.121,-66.406,0
2059.132,-409.668,160.156,209.961,-884.277,-35.156,0
2059.136,4.395,123.535,147.461,-576.660,-66.895,0
2059.140,288.574,68.359,67.871,-78.125,11.230,0
2059.144,548.340,19.531,77.637,614.258,47.363,0
2059.147,843.262,-17.090,104.004,994.141,16.113,0
2059.151,959.473,-26.855,102.051,987.305,3.418,0
2059.155,997.070,-28.320,84.473,994.141,14.648,0
2059.159,997.559,-28.809,69.824,-999.023,26.855,0
2059.163,999.023,-28.809,54.688,999.512,48.828,0
2059.167,999.512,-19.531,78.125,999.512,109.863,0
2059.171,999.512,44.434,290.039,999.512,167.969,0
2059.175,999.512,69.336,402.344,999.023,0.000,0
2059.179,999.512,17.578,232.422,-999.512,-143.066,0
2059.183,999.512,-27.344,69.336,995.605,-52.734,0
2059.187,-997.559,-49.316,-30.273,995.605,36.621,0
2059.190,987.305,-30.273,-50.293,989.258,52.246,0
2059.194,995.117,4.883,-43.945,994.629,49.316,0
2059.198,946.777,33.203,-31.250,893.555,57.617,0
2059.202,426.758,70.801,-14.160,314.453,62.988,0
2059.206,-521.973,156.738,-14.160,-627.441,59.082,0
2059.210,-1000.000,229.492,18.555,-1000.000,19.531,0
2059.214,-925.781,219.238,14.160,-943.359,-67.871,0
2059.218,-965.332,203.125,13.672,-969.238,89.355,0
2059.222,-884.277,228.027,244.141,-971.680,227.539,0
2059.226,176.758,196.289,273.438,-970.703,-47.852,0
2059.229,-959.961,124.023,15.137,-963.379,-159.668,0
2059.233,965.820,107.422,-100.098,-980.957,-74.219,0
2059.237,952.637,121.094,-88.379,-935.059,-27.344,0
2059.241,722.656,127.930,-62.500,-784.180,59.082,0
2059.245,-39.062,152.832,-29.785,-868.652,111.816,0
2059.249,-737.305,187.500,5.859,-985.840,62.500,0
2059.253,-995.117,191.406,23.438,-965.820,39.062,0
2059.257,-800.781,171.387,43.945,-940.918,57.617,0
2059.261,333.984,119.141,-14.648,-1000.000,-14.648,0
2059.265,-897.461,65.430,-78.125,-676.758,65.430,0
2059.269,647.949,67.383,103.027,50.781,112.793,0
2059.272,-238.281,113.770,279.297,91.797,-2.441,0
2059.276,-859.375,163.574,255.859,-560.547,-28.320,0
2059.280,-978.516,197.266,183.105,-999.023,-15.625,0
2059.284,-906.738,221.191,200.195,-957.520,-1.953,0
2059.288,-1000.000,202.148,159.668,-942.383,-31.738,0
2059.292,-620.117,145.020,20.020,-984.375,8.301,0
2059.296,636.719,75.684,-82.031,-838.867,40.039,0
2059.300,-947.754,-23.438,-99.121,-103.516,-14.160,0
2059.304,957.031,-119.629,-64.941,724.609,-31.250,0
2059.308,-997.559,-153.320,-25.391,-989.746,1.953,0
2059.312,999.512,-131.348,2.441,981.445,25.879,0
2059.315,-999.512,-51.270,147.949,997.070,210.938,0
2059.319,997.559,89.844,509.766,-999.512,291.504,0
2059.323,987.793,133.301,587.891,999.512,-52.246,0
2059.327,997.070,66.895,277.832,999.512,-155.762,0
2059.331,-999.512,32.227,102.051,999.023,2.930,0
2059.335,998.535,7.324,46.387,-999.512,24.414,0
2059.339,999.512,-30.273,-19.531,995.605,69.336,0
2059.343,999.512,-42.969,15.137,994.629,76.172,0
2059.347,999.512,-50.293,27.344,-1000.000,14.648,0
2059.351,999.512,-49.805,-5.371,998.047,20.508,0
2059.354,999.512,-25.879,13.184,-997.559,53.711,0
2059.358,999.512,-3.906,27.344,989.258,40.527,0
2059.362,999.512,25.391,70.312,977.051,155.273,0
2059.366,999.512,96.191,295.410,-980.469,230.469,0
2059.370,999.512,102.539,313.965,855.469,-52.246,0
2059.374,999.512,39.062,35.645,622.559,-78.125,0
2059.378,999.512,0.488,-101.562,529.785,97.656,0
2059.382,999.512,-20.508,-125.488,446.777,43.945,0
2059.386,999.512,-22.461,-139.648,381.836,8.301,0
2059.390,997.559,1.465,-140.625,195.312,33.203,1
2059.394,995.117,43.945,-107.910,39.062,33.691,0
2059.397,993.652,90.820,-96.191,-207.520,102.539,0
2059.401,889.160,149.902,-15.625,-503.418,120.117,0
2059.405,509.766,204.590,32.227,-809.570,45.898,0
2059.409,-36.621,244.629,53.223,-983.398,62.012,0
2059.413,-438.965,283.691,202.148,-961.426,162.598,0
2059.417,-162.109,286.621,276.367,-969.238,43.945,0
2059.421,789.062,197.266,82.520,-970.215,-191.895,0
2059.425,-958.984,121.094,-106.445,-969.727,-56.641,0
2059.429,964.355,107.422,-143.066,-973.145,41.016,0
2059.433,-995.605,112.793,-125.488,-952.148,50.293,0
2059.437,-999.512,132.324,-76.660,-953.613,52.734,0
2059.440,965.820,158.691,-15.137,-973.633,-1.953,0
2059.444,-903.320,165.527,17.578,-967.773,-31.738,0
2059.448,571.289,153.809,-3.418,-971.191,16.113,0
2059.452,338.379,143.555,-26.855,-971.191,54.199,0
2059.456,-984.863,125.977,-1.465,-910.156,76.660,0
2059.460,-983.398,106.445,6.348,-970.215,93.262,0
2059.464,977.051,141.113,155.762,-711.426,154.785,0
2059.468,-994.141,125.977,190.918,-466.309,-16.602,0
2059.472,989.746,68.848,-19.531,-581.055,-98.633,0
2059.476,998.047,82.520,-79.590,-729.980,50.781,0
2059.479,941.406,129.395,-44.922,-942.383,61.523,0
2059.483,479.980,159.180,-15.625,-972.656,53.223,0
2059.487,-194.824,171.875,-3.418,-964.355,65.430,0
2059.491,-743.652,173.340,9.766,-971.191,59.570,0
2059.495,-866.211,156.250,15.625,-970.215,33.203,0
2059.499,-816.406,136.230,-8.301,-970.215,41.504,0
2059.503,-952.148,153.320,69.336,-970.215,129.395,0
2059.507,-978.027,158.691,135.742,-970.215,-43.945,0
2059.511,-964.844,188.965,224.121,-970.215,25.879,0
2059.515,-972.168,240.234,385.254,-970.215,35.645,0
2059.519,-955.078,213.379,286.621,-970.215,-118.164,0
2059.522,-984.863,192.383,197.754,-971.680,-14.648,0
2059.526,-808.105,160.156,131.348,-956.543,-42.969,0
2059.530,-315.430,123.047,46.387,-977.539,18.555,0
2059.534,410.156,87.891,13.184,-842.285,37.598,0
2059.538,932.129,38.574,14.160,-316.406,18.555,0
2059.542,983.398,-15.625,52.734,507.812,-26.855,0
2059.546,-999.512,-59.570,68.848,999.023,1.465,0
2059.550,971.680,-39.551,164.551,986.328,112.305,0
2059.554,973.145,-9.277,245.605,990.234,7.812,0
2059.558,-996.094,-15.137,173.828,-997.070,40.527,0
2059.562,390.625,62.500,366.699,999.023,196.777,0
2059.565,357.422,83.984,431.641,992.188,-68.359,0
2059.569,967.285,16.113,215.332,997.070,-129.395,0
2059.573,-996.582,-13.672,143.066,-999.512,-45.410,0
2059.577,985.352,-18.066,151.855,998.535,24.902,0
2059.581,-999.023,-16.113,181.152,999.512,31.250,0
2059.585,999.512,-37.598,119.141,999.512,-49.805,0
2059.589,999.512,-48.340,64.941,999.512,-15.625,0
2059.593,999.512,-41.992,59.082,999.512,11.719,0
2059.597,999.512,-9.277,123.047,999.512,101.562,0
2059.601,999.512,36.621,245.605,-1000.000,59.570,0
2059.604,999.512,17.090,152.344,996.582,-57.129,0
2059.608,999.512,34.180,159.180,994.629,192.871,0
2059.612,999.512,81.055,325.684,-995.117,155.762,0
2059.616,999.512,36.621,152.832,809.570,-112.305,0
2059.620,999.512,10.254,-26.367,603.027,16.113,0
2059.624,999.512,13.184,-52.734,537.109,27.832,0
2059.628,999.512,17.578,-86.426,330.078,28.320,0
2059.632,999.512,29.297,-119.629,67.383,28.809,0
2059.636,999.512,61.035,-89.355,-97.656,89.844,0
2059.640,999.512,87.891,-64.453,-322.754,111.816,0
2059.644,999.512,117.676,-12.207,-503.418,59.570,0
2059.647,999.512,148.438,52.246,-733.398,-20.996,0
2059.651,999.512,134.766,-38.574,-981.934,-120.605,0
2059.655,999.512,123.047,-106.445,-965.332,73.730,0
2059.659,999.512,178.711,97.168,-962.402,211.426,0
2059.663,999.512,171.387,109.863,-970.703,-48.340,0
2059.667,999.512,113.281,-86.914,-970.703,-93.750,0
2059.671,999.512,102.539,-130.371,-969.727,12.695,0
2059.675,999.512,99.121,-148.926,-970.215,74.707,0
2059.679,999.512,107.910,-115.234,-970.215,66.406,0
2059.683,999.512,107.422,-109.863,-970.215,-6.348,0
2059.687,999.512,98.633,-143.555,-970.215,27.832,0
2059.690,999.512,117.676,-66.895,-970.215,73.242,0
2059.694,999.512,137.207,19.531,-970.215,49.805,0
2059.698,999.512,130.371,-5.371,-970.215,5.859,0
2059.702,999.512,92.773,-133.301,-970.215,-46.387,0
2059.706,999.512,124.023,-50.781,-970.215,193.359,0
2059.710,999.512,183.594,160.645,-970.215,99.121,0
2059.714,999.512,140.625,30.762,-970.215,-176.270,0
2059.718,999.512,109.863,-98.145,-970.215,-21.973,0
2059.722,999.512,108.398,-109.375,-970.215,40.527,0
2059.726,999.512,113.281,-90.332,-970.215,7.324,0
2059.729,999.512,107.910,-84.961,-970.215,19.531,0
2059.733,999.512,95.703,-95.703,-970.215,51.758,0
2059.737,999.512,122.559,13.672,-970.215,63.477,0
2059.741,999.512,143.555,99.121,-970.703,-36.621,0
2059.745,999.512,119.141,29.297,-967.285,-73.730,0
2059.749,999.512,94.727,-40.527,-975.098,-29.297,0
2059.753,999.512,105.957,-5.371,-960.938,99.609,0
2059.757,999.512,168.945,229.492,-922.852,176.758,0
2059.761,999.512,160.645,234.375,-960.938,-111.328,0
2059.765,999.512,102.051,20.996,-975.586,-91.797,0
2059.769,999.512,81.055,-38.086,-967.285,48.828,0
2059.772,999.512,67.871,-47.363,-970.215,51.270,0
2059.776,999.512,58.594,-58.594,-964.844,53.711,0
2059.780,999.512,56.152,-61.523,-986.816,52.734,0
2059.784,999.512,75.684,50.293,-872.559,74.219,0
2059.788,999.512,82.031,141.113,-806.641,-26.367,0
2059.792,999.512,57.129,67.383,-902.344,-85.938,0
2059.796,999.512,41.504,24.414,-817.383,-20.996,0
2059.800,999.512,14.648,-30.762,-697.754,-3.906,0
2059.804,999.512,39.062,142.578,-176.758,179.688,0
2059.808,999.512,50.293,339.844,175.293,86.914,0
2059.812,999.512,2.930,197.754,60.547,-59.570,0
2059.815,999.512,-17.578,138.184,247.070,38.574,0
2059.819,999.512,-45.898,98.145,404.785,-7.812,0
2059.823,999.512,-72.266,38.086,641.113,68.848,0
2059.827,999.512,-93.262,22.461,894.043,103.027,0
2059.831,999.512,-67.871,128.418,993.652,152.832,0
2059.835,999.512,-46.875,211.914,999.512,47.363,0
2059.839,999.512,-66.406,125.000,972.656,-66.406,0
2059.843,999.512,-66.406,62.012,940.918,24.902,0
2059.847,999.512,-66.406,22.949,842.285,21.973,0
2059.851,999.512,-39.062,38.574,784.180,148.926,0
2059.854,999.512,34.180,270.020,847.168,208.496,0
2059.858,999.512,46.387,253.418,382.812,-77.637,0
2059.862,999.512,32.227,13.672,-45.898,-7.324,0
2059.866,999.512,47.852,-32.715,-263.672,56.641,0
2059.870,-999.023,77.148,-25.391,-528.320,91.797,0
2059.874,998.047,95.215,0.488,-614.746,117.188,0
2059.878,964.355,112.793,68.359,-643.555,50.293,0
2059.882,-958.008,127.441,107.422,-724.609,-28.809,0
2059.886,521.484,121.094,17.090,-924.316,-2.930,0
2059.890,-640.137,151.855,29.785,-978.027,67.383,0
2059.894,-1000.000,177.246,84.473,-963.379,-1.953,0
2059.897,-936.523,169.434,40.039,-971.191,-7.324,0
2059.901,-971.191,237.305,221.680,-970.215,192.871,0
2059.905,-971.191,308.105,421.875,-970.215,85.449,0
2059.909,-970.215,274.902,281.250,-970.215,-143.066,0
2059.913,-970.215,257.812,185.547,-970.215,-16.113,0
2059.917,-970.215,247.559,160.156,-970.215,13.184,0
2059.921,-970.215,231.445,130.371,-970.215,41.504,0
2059.925,-970.215,253.418,192.871,-970.215,128.418,0
2059.929,-970.215,276.855,268.066,-970.215,63.477,0
2059.933,-970.215,277.344,285.645,-970.215,-7.812,0
2059.937,-970.215,265.625,231.934,-970.215,11.230,0
2059.940,-970.215,257.812,176.758,-970.215,45.410,0
2059.944,-970.215,264.160,202.637,-970.215,-27.344,0
2059.948,-970.215,297.852,262.695,-970.215,97.168,0
2059.952,-970.215,367.188,479.980,-970.215,175.293,0
2059.956,-970.215,346.191,458.496,-970.215,-105.469,0
2059.960,-970.215,295.898,269.043,-970.215,-57.617,0
2059.964,-970.215,293.457,240.723,-970.215,55.664,0
2059.968,-970.215,293.945,243.652,-970.215,17.090,0
2059.972,-970.215,314.453,312.988,-970.215,54.199,0
2059.976,-970.215,319.824,360.840,-970.215,15.625,0
2059.979,-970.215,296.875,299.316,-970.215,-60.059,0
2059.983,-970.215,282.715,259.277,-970.215,-30.273,0
2059.987,-970.215,278.320,253.906,-970.703,2.441,0
2059.991,-970.215,287.598,298.340,-959.961,47.852,0
2059.995,-970.215,258.789,237.793,-1000.000,9.277,0
2059.999,-970.215,269.531,336.426,-833.984,189.453,0
2060.003,-970.215,284.180,473.145,-780.273,121.094,0
2060.007,-970.215,219.727,263.184,-984.375,-54.199,0
2060.011,-970.215,193.848,175.781,-965.332,-1.953,2
2060.015,-970.215,181.641,162.598,-980.469,-6.348,0
2060.019,-970.215,191.895,243.164,-896.973,31.738,0
2060.022,-970.215,189.453,297.363,-797.852,-49.805,0
2060.026,-970.215,164.062,202.148,-913.086,-74.707,0
2060.030,-970.215,153.809,161.621,-894.043,-29.785,0
2060.034,-970.215,135.742,154.297,-747.559,-35.645,0
2060.038,-970.215,110.840,151.367,-622.559,-7.324,0
2060.042,-971.191,75.195,111.816,-408.691,-3.418,0
2060.046,-960.449,70.312,144.531,-50.781,186.035,0
2060.050,-966.797,108.887,406.250,390.625,192.871,0
2060.054,-892.090,83.008,378.906,345.703,-96.680,0
2060.058,-399.902,30.762,166.504,420.410,-41.016,0
2060.062,165.527,-3.418,150.879,885.742,12.207,0
2060.065,-88.867,2.441,224.609,-989.746,89.355,0
2060.069,-24.902,22.949,281.738,979.980,32.227,0
2060.073,360.352,5.859,208.496,-999.512,-61.523,0
2060.077,291.504,-14.160,130.371,999.512,-7.812,0
2060.081,641.602,-30.762,88.867,999.023,14.648,0
2060.085,733.398,-36.621,62.012,999.512,31.250,0
2060.089,694.336,-33.203,58.594,-1000.000,25.391,0
2060.093,697.266,-43.945,14.160,989.746,-13.184,0
2060.097,87.402,20.020,194.336,-987.305,166.016,0
2060.101,-48.828,69.336,347.656,901.367,51.270,0
2060.104,155.273,20.996,111.328,580.078,-105.469,0
2060.108,25.879,30.273,43.457,458.496,55.664,0
2060.112,-86.426,56.152,120.605,547.363,69.824,0
2060.116,-431.152,67.871,126.465,286.621,19.531,0
2060.120,-351.074,75.684,28.320,-169.434,-7.812,0
2060.124,-462.402,87.891,-62.988,-588.867,53.711,0
2060.128,-662.598,110.840,-93.262,-944.824,96.191,0
2060.132,-759.277,126.465,-80.566,-973.633,52.734,0
2060.136,-979.004,136.230,-43.457,-959.961,42.969,0
2060.140,-969.238,129.395,-60.547,-973.145,10.742,0
2060.144,-965.332,148.926,3.906,-970.215,158.203,0
2060.147,-971.191,215.332,254.395,-970.215,144.043,0
2060.151,-970.215,190.918,204.102,-970.215,-153.809,0
2060.155,-970.215,128.418,-17.090,-970.215,-13.672,0
2060.159,-970.215,131.836,5.859,-970.215,140.625,0
2060.163,-970.215,141.602,66.406,-970.215,100.098,0
2060.167,-970.703,137.207,66.895,-970.215,5.859,0
2060.171,-963.379,114.746,-2.930,-970.215,-0.488,0
2060.175,-989.258,88.379,-88.867,-970.215,76.660,0
2060.179,-867.188,82.031,-104.980,-972.168,85.938,0
2060.183,-818.359,74.707,-90.332,-961.426,61.035,0
2060.187,-690.430,71.777,-68.848,-968.262,24.414,0
2060.190,18.555,56.152,-115.723,-974.121,-5.371,0
2060.194,-86.914,92.285,83.496,-521.973,159.180,0
2060.198,19.043,104.980,243.652,-319.336,20.996,0
2060.202,884.766,23.926,5.371,-348.145,-123.535,0
2060.206,-998.047,-13.672,-5.371,418.457,76.660,0
2060.210,975.098,-43.945,81.055,-984.863,28.809,0
2060.214,-996.582,-82.031,4.395,987.305,-36.621,0
2060.218,999.023,-96.680,-57.617,989.746,20.508,0
2060.222,999.512,-99.609,-77.148,994.141,61.035,0
2060.226,999.512,-78.125,-30.762,987.793,77.148,0
2060.229,999.512,-76.172,-18.555,-999.023,-5.371,0
2060.233,999.512,-93.750,-85.449,-999.023,40.039,0
2060.237,999.512,-104.004,-127.930,990.723,21.973,0
2060.241,999.512,-77.637,-58.105,-995.117,159.668,0
2060.245,999.512,-17.578,148.926,974.121,186.035,0
2060.249,999.512,-33.203,58.594,673.828,-90.820,0
2060.253,999.512,-40.527,-61.035,562.988,63.965,0
2060.257,999.512,-29.785,-12.695,623.535,39.551,0
2060.261,999.512,-43.457,-92.285,293.457,-71.289,0
2060.265,999.512,-34.180,-173.828,-83.008,14.160,0
2060.269,999.512,-19.531,-182.617,-143.066,20.020,0
2060.272,999.512,-8.301,-167.480,-302.246,-11.719,0
2060.276,999.512,11.230,-163.086,-505.371,-2.930,0
2060.280,999.512,20.996,-187.988,-631.836,58.105,0
2060.284,999.512,37.598,-150.391,-678.223,117.676,0
2060.288,999.512,45.898,-92.773,-630.859,39.062,0
2060.292,999.512,82.520,79.590,-474.609,119.141,0
2060.296,999.512,104.980,173.340,-567.871,2.930,0
2060.300,999.512,77.148,27.832,-764.648,-52.246,0
2060.304,999.512,61.523,-10.254,-747.070,7.324,0
2060.308,999.512,19.531,-98.633,-649.414,-29.785,0
2060.312,999.512,-4.883,-116.211,-431.641,36.133,0
2060.315,999.512,-1.953,-107.422,-395.996,11.230,0
2060.319,999.512,9.766,-118.164,-412.109,41.016,0
2060.323,999.512,29.297,-102.539,-513.184,67.383,0
2060.327,-998.535,39.551,-90.332,-468.750,54.199,0
2060.331,985.840,40.039,-63.477,-448.730,41.504,0
2060.335,-972.168,38.574,-80.566,-564.941,-16.602,0
2060.339,923.340,60.059,-20.996,-387.207,160.645,0
2060.343,786.133,99.609,193.359,-314.453,179.199,0
2060.347,979.004,80.078,187.500,-464.355,-115.723,0
2060.351,-991.211,53.223,108.398,-332.520,-83.984,0
2060.354,979.492,38.086,46.387,-332.031,-66.406,0
2060.358,-987.305,30.762,-39.062,-390.625,-50.293,0
2060.362,596.191,52.246,-37.598,-580.566,4.395,0
2060.366,140.137,82.031,-49.316,-880.371,44.922,0
2060.370,-202.637,99.609,-64.941,-973.145,79.590,0
2060.374,-680.664,104.492,-50.781,-964.844,57.617,0
2060.378,-661.133,101.562,-44.922,-967.285,59.570,0
2060.382,-474.121,87.891,-62.012,-967.285,69.336,0
2060.386,32.715,68.359,-88.867,-989.258,32.715,0
2060.390,264.160,112.793,106.445,-836.426,193.848,0
2060.394,15.625,160.645,294.922,-841.797,80.566,0
2060.397,82.031,144.043,184.082,-990.723,-113.770,0
2060.401,-210.449,142.090,140.137,-965.332,-52.734,0
2060.405,-156.250,134.277,105.957,-968.750,-65.918,0
2060.409,-48.828,111.328,16.113,-970.215,-26.855,0
2060.413,-353.516,104.492,-22.461,-970.215,48.828,0
2060.417,-148.926,104.004,-29.297,-970.215,35.645,0
2060.421,-301.270,103.027,-6.836,-970.215,-27.832,0
2060.425,-535.645,92.773,-29.785,-970.215,23.926,0
2060.429,-603.027,88.379,-48.828,-970.215,93.750,0
2060.433,-953.613,85.938,-46.875,-970.215,40.527,0
2060.437,-980.957,106.445,15.137,-970.215,179.199,0
2060.440,-957.520,191.895,340.820,-970.215,272.461,0
2060.444,-973.145,186.523,399.414,-970.215,-72.266,0
2060.448,-970.215,95.215,98.145,-970.215,-171.387,0
2060.452,-970.215,65.918,-12.207,-969.238,-34.180,0
2060.456,-970.215,54.199,-40.039,-968.750,-5.859,0
2060.460,-970.215,49.805,-21.484,-958.008,67.871,0
2060.464,-970.215,54.199,34.180,-905.273,32.227,0
2060.468,-970.215,50.293,25.391,-730.469,19.531,0
2060.472,-970.215,70.312,71.289,-556.152,45.898,0
2060.476,-970.215,97.656,153.809,-366.211,26.855,0
2060.479,-970.215,113.281,215.820,-250.000,-13.184,0
2060.483,-970.215,127.930,248.535,-117.188,17.578,0
2060.487,-970.215,154.297,384.277,230.957,84.961,0
2060.491,-970.215,160.645,467.285,364.258,5.371,0
2060.495,-970.215,125.488,344.238,370.117,-28.320,0
2060.499,-970.215,83.984,219.238,325.684,19.531,0
2060.503,-970.215,67.383,173.340,259.277,22.461,0
2060.507,-970.215,62.500,146.973,277.344,15.137,0
2060.511,-970.215,58.594,102.051,198.242,72.754,0
2060.515,-970.215,67.871,94.238,-13.184,5.371,0
2060.519,-970.215,89.844,114.258,-225.098,36.133,0
2060.522,-970.215,108.398,151.855,-328.613,79.590,0
2060.526,-970.215,91.309,87.891,-461.426,6.836,0
2060.530,-973.145,70.801,-35.156,-702.148,36.133,0
2060.534,-955.078,95.215,47.363,-563.477,175.781,0
2060.538,-976.562,156.250,360.352,-163.086,256.348,0
2060.542,-941.406,169.434,429.199,-492.188,-70.801,0
2060.546,-365.234,128.418,151.367,-922.852,-238.770,0
2060.550,-213.379,105.957,0.488,-697.754,-34.180,0
2060.554,-726.562,108.398,14.648,-534.180,42.480,0
2060.558,-721.680,117.188,36.133,-552.246,37.109,0
2060.562,-750.488,122.070,23.926,-744.629,62.012,0
2060.565,-990.234,144.531,30.273,-974.121,58.594,0
2060.569,-946.289,156.738,54.199,-970.215,11.230,0
2060.573,-934.082,136.719,41.992,-942.383,-8.789,0
2060.577,-995.117,139.648,85.449,-973.633,-10.742,0
2060.581,-395.508,141.602,147.461,-778.320,23.438,0
2060.585,458.496,121.582,320.801,242.676,108.398,0
2060.589,307.617,62.012,350.586,764.648,-71.777,0
2060.593,268.066,-14.160,98.145,749.023,-94.727,0
2060.597,755.371,-59.082,-21.484,-994.141,106.445,0
2060.601,724.121,-77.637,-38.574,-999.023,77.148,0
2060.604,503.418,-75.684,-44.434,994.141,46.875,0
2060.608,471.191,-74.707,-62.988,993.652,56.152,0
2060.612,296.387,-77.148,-69.336,-980.957,54.688,0
2060.616,231.934,-64.941,-60.547,897.949,36.133,0
2060.620,695.312,-53.711,-68.359,810.059,4.883,0
2060.624,735.840,-49.805,-67.871,921.875,38.086,0
2060.628,622.070,-16.602,11.230,962.402,54.688,0
2060.632,674.805,40.527,168.457,-975.586,159.180,0
2060.636,316.895,104.980,318.359,839.844,185.547,0
2060.640,639.648,111.328,235.352,379.883,-61.035,0
2060.644,-956.055,77.637,41.016,147.461,-86.426,0
2060.647,984.375,61.523,-38.574,155.762,-1.465,0
2060.651,994.141,48.340,-60.547,154.785,9.766,0
2060.655,-999.023,35.156,-99.609,39.551,49.316,0
2060.659,999.512,22.461,-114.746,29.785,41.992,0
2060.663,999.512,4.883,-123.535,18.555,36.621,0
2060.667,999.512,0.488,-138.672,-41.016,47.852,0
2060.671,999.512,6.836,-124.512,-53.711,33.691,0
2060.675,999.512,42.480,-11.719,-119.141,64.941,0
2060.679,999.512,65.918,46.387,-138.184,43.457,0
2060.683,-1000.000,97.168,174.316,27.832,103.516,0
2060.687,995.605,105.469,204.590,-148.926,-56.152,0
2060.690,-990.723,62.500,-39.551,-503.418,-137.695,0
2060.694,966.309,70.801,-79.102,-550.293,36.133,0
2060.698,930.664,83.008,-11.719,-446.777,30.762,0
2060.702,-987.305,61.035,-41.992,-400.879,-39.062,0
2060.706,872.070,52.246,-81.055,-358.887,20.020,0
2060.710,632.324,57.617,-46.875,-276.367,29.297,0
2060.714,396.484,79.102,-20.020,-524.414,9.277,0
2060.718,132.812,108.398,-33.691,-863.281,48.828,0
2060.722,-350.586,153.809,62.012,-945.312,141.113,0
2060.726,-431.641,166.504,135.254,-964.844,-36.621,0
2060.729,-458.984,184.570,177.734,-970.703,66.406,0
2060.733,-875.488,227.051,329.590,-966.309,95.703,0
2060.737,71.289,169.922,201.172,-963.379,-199.707,0
2060.741,-983.887,110.840,15.137,-969.727,-86.914,0
2060.745,983.398,82.520,-32.227,-758.789,1.953,0
2060.749,980.469,37.598,-69.824,-352.539,3.906,0
2060.753,-995.117,0.488,-105.957,-458.984,62.500,0
2060.757,999.512,-33.691,-184.570,-881.348,51.758,0
2060.761,999.512,-103.516,-338.867,-976.074,-57.617,0
2060.765,999.512,-138.184,-414.551,-960.449,-0.488,0
2060.769,999.512,-95.703,-311.523,-969.727,119.141,0
2060.772,999.512,-58.105,-204.102,-970.703,62.012,0
2060.776,999.512,-69.336,-245.605,-970.215,20.996,0
2060.780,998.047,-13.672,-75.684,-970.215,165.039,0
2060.784,-999.512,5.859,0.488,-970.215,-50.293,0
2060.788,-999.512,-35.156,-199.707,-970.215,-77.148,0
2060.792,965.820,-12.207,-214.355,-968.750,103.027,0
2060.796,964.355,7.324,-167.480,-972.168,65.430,0
2060.800,-892.090,0.000,-138.184,-967.773,-5.859,0
2060.804,278.320,15.137,-93.262,-949.707,20.996,0
2060.808,62.500,39.062,-71.289,-965.332,41.016,0
2060.812,604.004,45.410,-80.566,-973.145,106.934,0
2060.815,-325.684,81.543,27.832,-968.750,150.391,0
2060.819,149.902,90.332,116.211,-957.031,41.992,0
2060.823,-848.633,41.504,20.508,-1000.000,-94.727,0
2060.827,771.484,64.941,81.055,-776.367,83.496,0
2060.831,838.379,115.723,241.211,-707.031,91.309,0
2060.835,-960.938,57.617,38.574,-990.723,-146.484,0
2060.839,987.793,7.812,-135.742,-971.680,-6.836,0
2060.843,-999.512,-7.324,-152.344,-963.379,21.973,0
2060.847,999.512,-20.996,-189.941,-971.191,16.602,0
2060.851,999.512,-3.418,-181.641,-970.215,58.105,0
2060.854,999.512,12.695,-141.113,-970.215,13.184,0
2060.858,999.512,-8.789,-168.457,-970.215,12.695,0
2060.862,999.512,9.766,-84.961,-970.215,90.820,0
2060.866,999.512,43.945,18.066,-970.215,-13.672,0
2060.870,999.512,19.043,-83.984,-970.215,-77.637,0
2060.874,999.512,22.949,-90.820,-970.215,107.910,0
2060.878,999.512,78.613,126.465,-970.215,165.039,0
2060.882,999.512,36.133,76.660,-970.215,-101.562,0
2060.886,999.512,-51.270,-202.637,-970.215,-52.734,0
2060.890,999.512,-71.777,-279.297,-970.215,82.520,0
2060.894,999.512,-99.609,-319.824,-970.215,33.691,0
2060.897,999.512,-134.766,-361.328,-970.215,16.602,0
2060.901,999.512,-153.320,-357.910,-970.215,-25.391,0
2060.905,999.512,-169.922,-388.184,-970.215,5.371,0
2060.909,999.512,-158.203,-362.305,-970.215,136.230,0
2060.913,999.512,-123.535,-248.535,-970.215,30.762,0
2060.917,999.512,-137.207,-268.066,-970.215,-73.242,0
2060.921,999.512,-176.758,-382.812,-970.215,-44.434,0
2060.925,999.512,-111.816,-211.914,-970.215,140.625,0
2060.929,999.512,-31.738,13.672,-970.215,83.984,0
2060.933,-995.605,-41.992,-59.082,-970.215,-128.418,0
2060.937,979.492,-45.410,-134.766,-970.215,-43.945,0
2060.940,979.980,-47.852,-162.598,-970.215,32.227,0
2060.944,-967.773,-20.508,-105.469,-970.215,75.684,0
2060.948,-64.453,29.297,-36.621,-970.215,48.340,0
2060.952,-1000.000,59.570,-6.836,-970.215,63.477,0
2060.956,-935.547,107.422,128.418,-970.215,82.520,0
2060.960,-957.520,152.344,244.629,-970.215,9.766,0
2060.964,-974.121,148.926,208.496,-970.215,-39.551,0
2060.968,-970.215,144.531,167.480,-970.215,-6.348,0
2060.972,-970.215,180.664,223.633,-970.215,101.074,0
2060.976,-970.215,267.578,478.027,-970.215,157.715,0
2060.979,-970.215,264.160,492.188,-970.215,-89.355,0
2060.983,-970.215,224.121,299.805,-970.215,-66.406,0
2060.987,-970.215,225.098,244.141,-970.215,90.332,0
2060.991,-970.215,239.258,281.738,-970.215,86.426,0
2060.995,-970.215,257.812,332.031,-970.215,-9.277,0
2060.999,-970.215,243.652,278.320,-970.215,-7.812,0
2061.003,-970.215,252.441,305.176,-970.215,87.402,0
2061.007,-970.215,294.434,420.898,-968.750,37.109,0
2061.011,-970.215,289.062,400.879,-970.215,-82.520,0
2061.015,-970.215,258.301,315.430,-967.285,-71.777,0
2061.019,-970.215,244.141,252.441,-978.516,-20.508,0
2061.022,-977.051,283.203,368.652,-937.988,187.012,0
2061.026,-935.547,313.477,532.227,-921.875,85.449,0
2061.030,-987.305,264.648,391.113,-973.633,-197.754,0
2061.034,-881.348,224.121,235.352,-957.031,-68.848,0
2061.038,337.891,170.898,113.770,-1000.000,37.598,0
2061.042,-913.086,132.324,67.871,-786.133,30.273,0
2061.046,953.125,98.145,62.500,-585.938,-10.254,0
2061.050,999.023,85.449,74.219,-701.172,30.762,0
2061.054,992.676,102.051,161.133,-482.910,63.965,0
2061.058,951.660,83.496,144.531,-457.520,-1.953,0
2061.062,-884.277,58.594,35.156,-539.551,12.207,0
2061.065,78.125,77.637,47.852,-355.469,71.777,0
2061.069,-1000.000,163.574,191.406,-462.402,202.637,0
2061.073,-937.500,297.363,529.297,-322.754,250.000,0
2061.077,-952.637,342.773,645.508,-287.598,-49.316,0
2061.081,-974.609,334.473,520.020,-235.352,-70.312,0
2061.085,-970.215,347.168,547.852,117.188,31.738,0
2061.089,-970.215,350.586,584.961,480.469,37.598,0
2061.093,-970.215,347.168,624.512,893.555,25.391,0
2061.097,-970.215,365.234,727.539,-991.211,64.941,0
2061.101,-970.215,380.859,775.879,987.305,15.625,0
2061.104,-970.215,365.234,687.012,-1000.000,-2.441,0
2061.108,-970.215,369.629,689.941,999.512,54.199,0
2061.112,-970.215,376.953,708.496,-1000.000,-7.324,0
2061.116,-970.215,344.727,589.355,997.070,-14.160,0
2061.120,-970.215,378.906,691.406,-995.605,230.957,0
2061.124,-970.215,423.340,862.793,985.840,136.230,0
2061.128,-970.215,372.559,695.312,969.727,-120.605,0
2061.132,-970.215,348.145,575.195,-1000.000,-26.367,0
2061.136,-970.215,335.449,535.156,999.512,25.879,0
2061.140,-970.215,318.359,483.887,-999.512,62.500,0
2061.144,-970.215,334.961,557.129,993.652,111.328,0
2061.147,-970.215,338.379,596.191,984.375,41.992,0
2061.151,-970.215,311.523,496.582,998.047,11.230,0
2061.155,-970.215,299.805,464.355,995.605,56.641,0
2061.159,-970.215,286.133,430.176,894.043,31.250,0
2061.163,-970.215,269.531,336.426,665.039,27.832,0
2061.167,-970.215,286.133,359.375,570.312,168.945,0
2061.171,-970.215,341.797,593.750,653.320,165.039,0
2061.175,-970.215,331.055,551.758,205.078,-140.137,0
2061.179,-970.215,292.969,292.969,-311.523,-82.520,0
2061.183,-970.215,286.133,218.262,-483.398,26.367,0
2061.187,-970.215,281.738,195.801,-705.078,-9.277,0
2061.190,-970.215,295.898,239.258,-737.793,42.480,0
2061.194,-970.215,302.734,313.477,-709.473,-10.254,0
2061.198,-970.215,279.297,251.465,-895.996,-110.352,0
2061.202,-970.215,255.859,149.902,-982.422,-56.152,0
2061.206,-970.215,231.934,90.820,-963.867,50.781,0
2061.210,-971.680,218.262,95.703,-962.891,30.762,0
2061.214,-962.891,201.660,67.871,-995.605,-41.504,0
2061.218,-975.586,233.398,221.680,-856.934,146.484,0
2061.222,-947.754,259.766,367.188,-832.520,59.570,0
2061.226,-741.699,205.078,175.293,-937.500,-40.527,0
2061.229,-567.871,174.316,99.609,-808.594,57.129,0
2061.233,-339.844,138.672,37.109,-661.133,0.000,0
2061.237,-366.699,125.000,73.242,-247.559,108.398,0
2061.241,-320.801,109.863,158.691,-2.930,-8.789,0
2061.245,-87.402,70.801,64.453,-54.199,-78.125,0
2061.249,-95.215,39.062,-24.902,108.398,37.598,0
2061.253,122.559,9.277,-28.809,402.832,25.879,0
2061.257,113.281,-10.254,-18.555,626.953,37.109,0
2061.261,225.098,-41.504,-62.988,823.242,56.641,0
2061.265,625.000,-52.246,-27.832,991.211,164.062,0
2061.269,239.746,11.719,224.609,981.934,148.926,0
2061.272,412.109,10.254,189.941,817.383,-108.398,0
2061.276,-987.305,-48.340,-39.062,886.230,-54.688,0
2061.280,995.605,-68.848,-77.637,-981.934,30.762,0
2061.284,987.305,-52.246,-31.738,993.652,111.328,0
2061.288,-997.559,-30.273,54.688,997.070,37.598,0
2061.292,999.512,-24.902,83.984,-999.023,-52.246,0
2061.296,999.512,-33.691,37.109,-1000.000,-54.199,0
2061.300,999.512,-56.152,-71.777,963.867,-42.480,0
2061.304,999.512,-80.078,-164.551,986.816,77.148,0
2061.308,999.512,-92.285,-174.805,975.098,76.172,0
2061.312,999.512,-97.656,-218.750,781.250,16.113,0
2061.315,999.512,-47.363,-76.660,896.484,225.586,0
2061.319,999.512,-3.418,94.727,750.488,97.168,0
2061.323,999.512,-31.250,-112.305,-8.301,-148.438,0
2061.327,999.512,-39.551,-283.203,-477.539,0.000,0
2061.331,999.512,-16.602,-241.211,-686.035,82.031,0
2061.335,999.512,-21.973,-227.539,-908.203,-41.016,0
2061.339,999.512,-181.152,-564.941,-981.445,-134.277,0
2061.343,999.512,-363.770,-897.461,-961.426,44.434,0
2061.347,999.512,-427.246,-937.500,-971.680,45.898,0
2061.351,999.512,-429.199,-911.133,-970.215,-69.336,0
2061.354,999.512,-394.043,-865.234,-970.215,19.043,0
2061.358,999.512,-385.254,-857.910,-970.215,6.348,0
2061.362,999.512,-377.930,-804.199,-970.215,161.133,0
2061.366,999.512,-310.547,-544.434,-970.215,201.172,0
2061.370,999.512,-305.176,-532.715,-970.215,-125.977,0
2061.374,999.512,-318.359,-681.152,-970.215,-54.199,0
2061.378,999.512,-261.230,-571.777,-970.215,115.723,0
2061.382,999.512,-247.070,-486.328,-970.215,31.250,0
2061.386,999.512,-276.367,-552.246,-970.215,-33.203,0
2061.390,999.512,-245.605,-541.016,-970.215,10.254,0
2061.394,999.512,-200.195,-491.211,-970.215,36.133,0
2061.397,-999.512,-186.523,-486.816,-970.215,60.059,0
2061.401,993.652,-165.527,-409.180,-970.215,128.906,0
2061.405,976.074,-145.020,-302.246,-970.215,77.148,0
2061.409,-957.031,-151.855,-348.145,-970.215,-40.527,0
2061.413,482.910,-50.293,-155.273,-970.215,216.309,0
2061.417,-348.633,29.297,62.988,-970.215,87.402,0
2061.421,-819.824,-21.973,-96.680,-970.215,-109.863,0
2061.425,-986.328,4.883,-65.918,-970.215,131.836,0
2061.429,-951.660,67.383,72.266,-971.680,65.918,0
2061.433,-973.145,104.004,69.824,-958.984,-14.160,0
2061.437,-970.215,162.598,120.605,-975.586,59.570,0
2061.440,-970.215,201.660,192.383,-859.863,93.750,0
2061.444,-970.215,210.938,270.508,-439.453,44.922,0
2061.448,-970.215,227.051,388.672,312.988,45.410,0
2061.452,-970.215,243.164,487.305,934.082,88.867,0
2061.456,-970.215,256.348,528.809,999.023,-17.090,0
2061.460,-970.215,307.617,630.859,984.863,148.926,0
2061.464,-970.215,378.906,866.699,-998.047,186.035,0
2061.468,-970.215,366.211,829.590,999.512,-149.414,0
2061.472,-970.215,375.488,722.656,999.512,13.672,0
2061.476,-970.215,421.875,800.293,999.512,61.035,0
2061.479,-970.215,401.367,758.301,999.512,-107.422,0
2061.483,-970.215,370.605,653.809,999.512,-72.266,0
2061.487,-970.215,358.398,599.121,999.512,9.277,0
2061.491,-970.215,342.773,541.992,999.512,33.203,0
2061.495,-970.215,343.750,524.414,999.512,56.641,0
2061.499,-970.215,337.402,515.625,999.512,62.988,0
2061.503,-970.215,301.758,470.703,999.023,31.738,0
2061.507,-970.215,277.832,417.969,994.141,27.832,0
2061.511,-970.215,341.797,604.004,-983.887,208.008,0
2061.515,-970.215,366.699,702.637,922.852,64.941,0
2061.519,-970.215,329.102,565.918,880.371,-48.828,0
2061.522,-970.215,316.895,582.520,-979.492,18.066,0
2061.526,-970.215,270.508,486.328,897.461,-64.941,0
2061.530,-970.215,244.141,326.172,728.516,-11.230,0
2061.534,-970.215,235.840,249.512,626.953,58.594,0
2061.538,-970.215,223.633,190.430,248.535,46.875,0
2061.542,-970.215,216.309,147.949,46.875,42.480,0
2061.546,-970.215,206.055,120.117,-48.828,50.781,0
2061.550,-973.633,204.590,92.285,-356.934,40.039,0
2061.554,-931.641,216.797,73.242,-708.496,-36.621,0
2061.558,-1000.000,257.324,148.926,-845.703,91.309,0
2061.562,-587.891,284.668,314.453,-878.906,102.051,0
2061.565,-323.730,250.000,276.855,-848.633,-90.820,0
2061.569,-541.504,214.844,202.148,-585.449,-41.504,0
2061.573,508.789,157.227,107.910,-286.133,-27.344,0
2061.577,46.387,118.652,105.469,328.613,45.410,0
2061.581,-1000.000,104.492,203.125,664.062,16.602,0
2061.585,-960.938,79.590,145.996,493.164,-20.508,0
2061.589,-945.312,99.609,141.602,649.414,27.832,0
2061.593,-977.051,137.207,238.281,993.164,53.223,0
2061.597,-970.215,170.410,309.570,-998.047,68.359,0
2061.601,-970.215,198.242,355.469,990.234,14.160,0
2061.604,-970.215,197.754,347.656,-998.535,-24.414,0
2061.608,-970.215,257.324,518.066,999.512,163.086,0
2061.612,-970.215,305.176,681.152,999.512,62.988,0
2061.616,-970.215,263.672,561.035,999.512,-129.883,0
2061.620,-970.215,213.867,406.738,999.512,-98.633,0
2061.624,-970.215,160.645,266.113,999.023,-59.082,0
2061.628,-970.215,135.254,199.707,-1000.000,6.348,0
2061.632,-970.215,115.723,134.277,-1000.000,66.406,0
2061.636,-970.215,100.098,98.145,978.027,105.469,0
2061.640,-970.703,92.285,132.324,-996.094,73.730,0
2061.644,-970.703,74.707,120.605,905.762,-22.461,0
2061.647,-957.031,68.359,64.453,709.473,-3.906,0
2061.651,-957.031,67.871,25.879,469.238,-39.551,0
2061.655,-863.770,90.332,31.738,275.879,121.094,0
2061.659,-1.953,146.484,295.898,720.215,319.336,0
2061.663,928.223,105.469,373.047,-960.449,-49.316,0
2061.667,-999.512,0.977,76.660,980.469,-214.844,0
2061.671,976.562,-39.062,-80.078,997.559,-24.414,0
2061.675,-996.094,-58.105,-133.301,996.582,43.945,0
2061.679,999.512,-70.801,-161.621,997.559,41.992,0
2061.683,999.512,-76.660,-168.945,-999.512,16.113,0
2061.687,999.512,-93.262,-196.777,997.559,24.902,0
2061.690,999.512,-98.633,-213.379,992.676,28.809,0
2061.694,999.512,-98.633,-229.980,991.211,69.336,0
2061.698,999.512,-100.586,-192.871,-990.723,70.312,0
2061.702,999.512,-123.535,-244.629,922.363,23.438,0
2061.706,999.512,-76.660,-99.609,961.426,196.289,0
2061.710,999.512,-35.156,44.434,818.848,-4.395,0
2061.714,999.512,-72.754,-193.848,237.305,-168.457,0
2061.718,999.512,-69.336,-312.012,-169.922,-27.344,0
2061.722,999.512,-65.918,-347.168,-337.402,4.883,0
2061.726,999.512,-74.707,-397.949,-442.871,85.938,0
2061.729,999.512,-76.660,-414.062,-531.738,108.398,0
2061.733,999.512,-73.242,-403.809,-617.676,104.004,0
2061.737,999.512,-64.941,-392.578,-793.945,84.473,0
2061.741,999.512,-53.223,-372.559,-896.484,27.344,0
2061.745,999.512,-48.828,-356.445,-909.180,28.320,0
2061.749,999.512,-53.223,-382.324,-1000.000,32.227,0
2061.753,999.512,-11.230,-242.676,-788.574,215.332,0
2061.757,999.512,40.527,34.180,-507.324,194.336,0
2061.761,999.512,-0.977,-78.125,-751.465,-88.867,0
2061.765,999.512,-49.316,-316.895,-926.758,14.160,0
2061.769,999.512,-53.711,-349.121,-933.105,87.891,0
2061.772,999.512,-54.688,-329.102,-936.035,41.504,0
2061.776,999.512,-59.082,-324.707,-962.402,39.551,0
2061.780,999.512,-65.918,-336.426,-971.191,38.574,0
2061.784,999.512,-70.801,-314.941,-883.301,40.527,0
2061.788,999.512,-66.895,-251.465,-793.945,31.250,0
2061.792,999.512,-75.195,-251.465,-795.898,5.859,0
2061.796,999.512,-90.820,-298.828,-787.109,53.223,0
2061.800,999.512,-85.938,-239.258,-544.434,99.121,0
2061.804,999.512,-43.945,29.785,-63.477,134.766,0
2061.808,999.512,-49.805,70.801,-129.395,-59.082,0
2061.812,999.512,-101.074,-197.754,-423.340,-64.453,0
2061.815,999.512,-99.609,-200.684,-329.590,45.410,0
2061.819,999.512,-104.492,-185.059,-263.184,-22.949,0
2061.823,999.512,-126.465,-255.371,-188.965,7.812,0
2061.827,999.512,-128.418,-246.094,-160.156,5.371,0
2061.831,999.512,-120.605,-246.582,-202.148,35.645,0
2061.835,999.512,-115.723,-249.023,-236.328,55.664,0
2061.839,999.512,-113.770,-248.047,-216.797,31.738,0
2061.843,999.512,-115.723,-252.930,-145.996,82.031,0
2061.847,999.512,-106.934,-201.172,-56.152,95.215,0
2061.851,999.512,-66.406,-41.992,222.168,203.613,0
2061.854,999.512,-33.203,116.211,273.438,106.934,0
2061.858,999.512,-64.941,-34.668,-132.812,-134.766,0
2061.862,999.512,-91.797,-216.309,-225.098,-13.184,0
2061.866,999.512,-99.121,-227.051,-174.805,13.672,0
2061.870,999.512,-102.539,-241.699,-279.297,38.574,0
2061.874,999.512,-84.961,-174.805,-266.113,42.969,0
2061.878,999.512,-77.637,-136.719,-248.047,-51.758,0
2061.882,999.512,-84.473,-189.941,-296.387,-27.344,0
2061.886,999.512,-84.961,-205.566,-243.652,37.598,0
2061.890,999.512,-89.355,-216.309,-153.809,87.402,0
2061.894,999.512,-74.707,-130.859,59.082,126.953,0
2061.897,999.512,-53.223,-14.160,288.574,81.543,0
2061.901,999.512,-13.184,176.758,608.887,109.375,0
2061.905,999.512,-13.672,197.266,548.340,-52.734,0
2061.909,999.512,-52.246,-43.945,147.949,-101.074,0
2061.913,999.512,-46.387,-104.492,104.980,7.812,0
2061.917,999.512,-41.016,-107.422,173.828,7.324,0
2061.921,999.512,-41.504,-104.004,203.125,2.930,0
2061.925,999.512,-37.109,-96.680,204.590,3.418,0
2061.929,999.512,-32.227,-114.258,201.660,89.844,0
2061.933,999.512,-15.137,-44.922,289.062,85.938,0
2061.937,-997.559,-2.930,-5.371,259.766,-29.785,0
2061.940,978.516,21.973,55.664,338.379,26.367,0
2061.944,-956.543,17.578,79.590,440.918,-36.621,0
2061.948,842.285,30.273,94.727,450.684,97.656,0
2061.952,560.059,84.473,243.652,329.590,131.348,0
2061.956,718.750,73.730,104.004,-239.258,-124.023,0
2061.960,630.859,67.871,-58.105,-519.043,-34.180,0
2061.964,337.402,79.590,-98.633,-748.047,55.664,0
2061.968,123.535,95.703,-113.770,-968.750,65.430,0
2061.972,-94.238,108.887,-102.539,-968.262,65.430,0
2061.976,-504.883,114.258,-89.844,-965.820,76.172,0
2061.979,-570.312,125.000,-59.570,-971.191,33.691,0
2061.983,-586.914,133.789,-36.621,-970.215,10.254,0
2061.987,-937.988,165.039,63.477,-970.215,79.102,0
2061.991,-984.375,192.871,162.598,-970.215,13.184,0
2061.995,-952.148,174.805,98.633,-970.215,-17.578,0
2061.999,-977.539,221.191,228.516,-970.215,152.344,0
2062.003,-924.805,230.957,302.246,-970.215,-87.891,0
2062.007,-766.602,160.645,74.707,-970.215,-134.766,0
2062.011,-435.547,134.277,-23.926,-970.703,63.965,0
2062.015,-118.652,123.535,-41.016,-964.355,46.387,0
2062.019,13.672,117.188,-38.086,-977.051,20.996,0
2062.022,226.074,110.352,-26.855,-916.992,12.695,0
2062.026,398.926,94.238,-25.879,-763.672,27.832,0
2062.030,540.527,74.707,-34.180,-530.762,60.059,0
2062.034,291.504,76.172,62.500,-49.805,139.648,0
2062.038,291.992,76.172,160.645,229.492,87.891,0
2062.042,724.121,36.133,65.430,256.836,-62.012,0
2062.046,359.375,54.688,144.531,574.219,148.926,0
2062.050,215.332,110.840,381.348,639.648,112.793,0
2062.054,707.031,84.473,249.512,286.133,-184.082,0
2062.058,860.352,53.223,73.242,340.820,-67.383,0
2062.062,981.445,32.227,65.918,659.180,-20.996,0
2062.065,-995.605,6.348,54.688,897.949,0.488,0
2062.069,994.629,1.465,64.453,969.238,9.766,0
2062.073,-999.512,-2.441,63.477,995.605,-7.324,0
2062.077,999.512,-8.301,42.480,989.258,-0.488,0
2062.081,999.512,14.648,117.188,-993.164,61.523,0
2062.085,999.512,26.367,183.105,949.219,-5.371,0
2062.089,999.512,10.254,75.195,569.336,-115.723,0
2062.093,999.512,0.977,-51.758,303.223,17.578,0
2062.097,999.512,50.781,101.562,83.984,199.707,0
2062.101,999.512,-38.574,-100.586,-684.570,-89.355,0
2062.104,999.512,-322.754,-769.531,-1000.000,-196.777,0
2062.108,999.512,-473.633,-980.957,-937.500,22.949,0
2062.112,999.512,-471.680,-962.402,-973.633,35.156,0
2062.116,999.512,-425.781,-918.457,-970.215,13.184,0
2062.120,999.512,-386.230,-822.754,-970.215,11.230,0
2062.124,999.512,-385.254,-800.781,-970.215,33.691,0
2062.128,999.512,-348.633,-698.242,-970.215,126.465,0
2062.132,999.512,-286.621,-554.688,-970.215,105.469,0
2062.136,999.512,-247.070,-502.441,-970.215,-7.324,0
2062.140,999.512,-218.262,-518.555,-970.215,-14.648,0
2062.144,999.512,-149.414,-355.957,-970.215,233.887,0
2062.147,-991.211,-78.125,-98.633,-970.215,149.902,0
2062.151,936.035,-72.266,-159.668,-970.215,-79.102,0
2062.155,-896.484,-33.691,-216.797,-970.215,66.406,0
2062.159,545.898,19.531,-146.484,-970.215,83.984,0
2062.163,-816.406,58.594,-68.848,-970.215,64.453,0
2062.167,-1000.000,102.539,56.641,-970.215,104.492,0
2062.171,-921.387,154.297,174.316,-970.215,40.039,0
2062.175,-980.957,237.305,314.453,-971.191,9.766,0
2062.179,-970.215,307.617,417.969,-966.797,-2.441,0
2062.183,-970.215,311.035,387.695,-958.984,-47.363,0
2062.187,-970.215,323.730,398.926,-965.820,-47.363,0
2062.190,-970.215,354.980,437.500,-689.453,110.840,0
2062.194,-970.215,427.734,714.355,-138.672,232.422,0
2062.198,-970.215,472.656,868.164,-20.996,-96.191,0
2062.202,-970.215,445.312,700.195,48.340,-110.840,0
2062.206,-970.215,415.527,654.297,412.598,38.574,0
2062.210,-970.215,407.227,709.961,846.680,43.457,0
2062.214,-970.215,416.016,744.141,-983.887,1.953,0
2062.218,-970.215,425.781,721.191,985.352,0.000,0
2062.222,-970.215,457.031,791.016,999.023,61.523,0
2062.226,-970.215,487.305,905.273,-999.512,27.832,0
2062.229,-970.215,466.797,868.652,997.559,-89.355,0
2062.233,-970.215,444.336,746.094,983.887,-57.617,0
2062.237,-970.215,442.871,643.555,926.270,-1.465,0
2062.241,-970.215,467.285,730.469,955.566,193.848,0
2062.245,-970.215,496.094,878.906,833.008,140.137,0
2062.249,-970.215,457.520,708.984,501.465,-113.281,0
2062.253,-970.215,431.152,527.832,255.371,19.531,0
2062.257,-970.215,445.801,498.047,62.012,46.875,0
2062.261,-970.215,450.195,511.719,37.109,12.695,0
2062.265,-970.215,430.176,468.262,-173.828,25.879,0
2062.269,-970.215,438.965,523.926,-174.316,65.430,0
2062.272,-970.215,447.266,607.910,-11.230,6.348,0
2062.276,-970.215,424.316,510.254,-186.035,-33.691,0
2062.280,-970.215,399.902,401.367,-332.520,48.828,0
2062.284,-970.215,399.902,432.129,-282.715,68.359,0
2062.288,-970.215,399.414,510.254,-134.277,83.984,0
2062.292,-970.215,423.828,679.199,-46.387,89.355,0
2062.296,-970.215,427.246,678.711,-219.727,-113.770,0
2062.300,-970.215,367.188,435.547,-330.078,-73.242,0
2062.304,-970.215,333.496,344.238,-367.676,44.922,0
2062.308,-970.215,312.500,344.727,-160.645,34.180,0
2062.312,-970.215,279.785,331.543,86.426,54.199,0
2062.315,-970.215,276.855,407.715,267.090,90.332,0
2062.319,-970.215,277.344,516.113,489.746,-17.578,0
2062.323,-974.609,243.652,409.180,347.168,-46.875,0
2062.327,-925.293,197.754,265.137,334.961,68.359,0
2062.331,-1000.000,181.152,269.531,484.375,69.336,0
2062.335,-624.023,166.016,228.516,473.633,15.625,0
2062.339,641.113,161.133,291.504,779.297,208.496,0
2062.343,786.133,179.199,484.863,-970.215,174.805,0
2062.347,767.578,125.488,377.441,985.840,-121.094,0
2062.351,-949.707,54.199,185.547,998.047,-122.070,0
2062.354,983.887,26.367,87.891,-1000.000,-20.996,0
2062.358,-998.047,8.301,18.066,-999.023,55.664,0
2062.362,999.512,-4.883,26.855,990.723,112.793,0
2062.366,999.512,-15.137,36.621,-996.094,72.754,0
2062.370,999.512,-52.246,-62.500,951.660,1.465,0
2062.374,999.512,-75.195,-170.898,604.492,22.461,0
2062.378,999.512,-74.219,-237.793,321.777,105.469,0
2062.382,999.512,-85.449,-303.711,-149.414,68.359,0
2062.386,999.512,-75.684,-372.559,-819.824,146.973,0
2062.390,999.512,-10.254,-187.012,-979.004,215.820,0
2062.394,999.512,-24.902,-171.875,-954.102,-72.754,0
2062.397,999.512,-107.422,-416.992,-970.703,-67.871,0
2062.401,999.512,-133.789,-470.215,-970.703,56.152,0
2062.405,999.512,-136.230,-434.570,-970.215,46.875,0
2062.409,999.512,-139.648,-395.996,-970.215,54.199,0
2062.413,999.512,-140.137,-370.117,-970.215,-15.137,0
2062.417,999.512,-149.902,-414.062,-970.215,-36.133,0
2062.421,999.512,-158.691,-429.199,-970.215,30.762,0
2062.425,999.512,-156.250,-403.809,-970.215,-58.594,0
2062.429,999.512,-150.391,-416.504,-970.215,5.371,0
2062.433,999.512,-165.039,-470.703,-970.215,20.996,0
2062.437,999.512,-103.027,-280.273,-970.215,147.461,0
2062.440,999.512,-34.180,-63.477,-970.215,83.496,0
2062.444,999.512,-86.426,-229.492,-970.215,-135.742,0
2062.448,999.512,-109.375,-334.473,-970.215,-31.738,0
2062.452,999.512,-99.121,-341.309,-970.215,78.613,0
2062.456,999.512,-75.195,-281.738,-970.215,157.715,0
2062.460,-999.023,-38.574,-161.133,-970.215,90.332,0
2062.464,992.676,-9.277,-90.820,-970.215,9.766,0
2062.468,-988.770,-12.695,-124.023,-970.215,-60.059,0
2062.472,987.793,-20.508,-183.105,-970.703,-49.316,0
2062.476,852.051,0.977,-173.340,-968.262,56.152,0
2062.479,-975.098,-0.977,-200.195,-974.609,67.383,0
2062.483,931.152,17.090,-160.156,-958.984,156.738,0
2062.487,-365.234,109.375,113.281,-944.824,210.449,0
2062.491,-462.402,115.234,146.484,-970.215,-104.980,0
2062.495,300.293,60.059,-46.875,-971.191,-108.398,0
2062.499,-371.582,58.105,-71.289,-969.238,20.996,0
2062.503,-526.855,82.031,-2.441,-970.215,62.500,0
2062.507,-262.695,102.539,73.730,-970.215,21.973,0
2062.511,-813.965,94.727,37.598,-970.215,-26.367,0
2062.515,-1000.000,76.660,-45.898,-970.215,7.324,0
2062.519,-947.754,78.613,-37.109,-970.215,91.797,0
2062.522,-972.656,108.398,63.477,-970.215,58.105,0
2062.526,-970.215,106.445,49.805,-970.215,0.977,0
2062.530,-970.215,83.496,-48.828,-970.215,51.758,0
2062.534,-970.215,157.227,149.414,-970.215,243.164,0
2062.538,-970.215,213.379,354.980,-970.215,135.742,0
2062.542,-970.215,161.133,195.801,-970.215,-132.812,0
2062.546,-970.215,156.738,126.953,-970.215,-32.227,0
2062.550,-970.215,188.965,212.891,-970.215,82.520,0
2062.554,-970.215,198.730,258.789,-970.703,33.203,0
2062.558,-970.215,190.430,218.262,-968.750,-37.109,0
2062.562,-970.215,189.941,189.941,-967.773,6.348,0
2062.565,-970.215,181.641,178.711,-963.867,13.672,0
2062.569,-970.215,187.500,214.355,-871.582,-5.371,0
2062.573,-970.215,187.012,250.977,-620.605,4.395,0
2062.577,-970.215,156.250,231.445,-438.477,-3.906,0
2062.581,-970.215,175.293,347.656,43.457,145.020,0
2062.585,-970.215,215.332,644.531,825.195,146.484,0
2062.589,-970.215,173.340,625.000,943.359,-176.270,0
2062.593,-970.215,137.207,432.617,946.289,-64.941,0
2062.597,-970.215,170.898,483.887,-988.770,152.344,0
2062.601,-970.215,199.707,562.988,995.605,20.508,0
2062.604,-970.215,213.379,540.527,-1000.000,-74.219,0
2062.608,-970.215,225.586,496.094,999.512,18.066,0
2062.612,-970.215,232.910,499.023,999.512,-6.836,0
2062.616,-970.215,252.441,519.531,999.512,3.418,0
2062.620,-970.215,270.508,527.344,999.512,38.574,0
2062.624,-970.215,268.555,527.344,999.512,-17.090,0
2062.628,-970.215,260.254,474.609,997.559,-1.953,0
2062.632,-970.215,325.195,643.066,-995.605,206.055,0
2062.636,-970.215,354.492,781.250,983.887,44.922,0
2062.640,-970.215,301.270,599.121,967.773,-116.211,0
2062.644,-970.215,300.293,552.734,-989.746,56.152,0
2062.647,-976.562,277.832,520.996,961.426,-18.066,0
2062.651,-908.691,232.422,350.586,794.434,-38.574,0
2062.655,-1000.000,206.543,230.957,567.383,28.320,0
2062.659,-435.059,188.477,133.301,7.812,17.578,0
2062.663,893.066,157.715,26.367,39.062,19.531,0
2062.667,-970.215,101.074,7.812,592.773,-6.836,0
2062.671,956.055,43.457,-41.504,689.941,7.324,0
2062.675,-991.211,-2.930,-147.461,415.039,-5.371,0
2062.679,999.512,1.953,-161.621,225.098,165.527,0
2062.683,999.512,50.781,28.320,-100.586,105.469,0
2062.687,999.512,34.180,-79.102,-844.727,-202.148,0
2062.690,999.512,14.648,-254.883,-998.535,-28.809,0
2062.694,999.512,-13.184,-284.180,-943.359,37.598,0
2062.698,999.512,-61.035,-369.141,-975.098,-10.742,0
2062.702,999.512,-83.984,-407.715,-970.215,-21.484,0
2062.706,999.512,-120.117,-486.328,-970.215,11.719,0
2062.710,999.512,-143.555,-522.949,-970.215,48.340,0
2062.714,999.512,-140.625,-507.324,-970.215,71.777,0
2062.718,999.512,-143.066,-500.488,-970.215,91.309,0
2062.722,999.512,-150.879,-500.488,-970.215,90.820,0
2062.726,999.512,-151.855,-505.371,-970.215,86.426,0
2062.729,999.512,-87.402,-297.852,-970.215,243.652,0
2062.733,999.512,-57.617,-160.645,-970.215,115.723,0
2062.737,999.512,-87.402,-253.906,-970.215,-37.598,0
2062.741,999.512,-92.773,-274.902,-970.215,29.297,0
2062.745,999.512,-126.465,-369.141,-970.215,-0.488,0
2062.749,999.512,-125.977,-395.996,-970.215,42.969,0
2062.753,999.512,-117.676,-381.348,-970.215,63.477,0
2062.757,999.512,-112.305,-332.031,-970.215,55.664,0
2062.761,999.512,-95.215,-289.551,-970.215,-1.465,0
2062.765,999.512,-97.656,-322.754,-970.215,11.230,0
2062.769,999.512,-107.910,-345.215,-970.215,76.172,0
2062.772,999.512,-104.980,-336.426,-970.215,32.227,0
2062.776,999.512,-78.125,-258.301,-970.215,155.762,0
2062.780,999.512,-26.367,-65.918,-970.215,195.312,0
2062.784,999.512,-8.301,4.883,-970.215,-89.844,0
2062.788,999.512,-13.184,-35.156,-970.215,-65.918,0
2062.792,-1000.000,-27.832,-106.934,-970.703,-23.438,0
2062.796,-998.535,-25.391,-150.879,-966.309,-32.227,0
2062.800,945.312,-20.508,-151.855,-973.145,17.090,0
2062.804,-882.812,-19.043,-157.227,-972.168,54.199,0
2062.808,307.617,10.742,-84.473,-844.238,39.551,0
2062.812,-716.309,36.621,-29.297,-886.230,37.598,0
2062.815,-804.199,64.453,41.016,-989.258,55.176,0
2062.819,-976.074,98.633,130.371,-960.938,-23.438,0
2062.823,-965.332,104.492,98.633,-979.492,-20.020,0
2062.827,-971.680,171.387,264.648,-937.500,215.820,0
2062.831,-970.215,262.207,521.973,-914.062,119.141,0
2062.835,-970.215,276.367,513.184,-967.285,-146.484,0
2062.839,-970.215,271.484,419.434,-955.566,-86.914,0
2062.843,-970.215,280.762,418.457,-547.852,24.414,0
2062.847,-970.215,275.391,478.516,125.000,18.066,0
2062.851,-970.215,248.535,498.047,677.246,27.832,0
2062.854,-970.215,252.930,549.805,969.727,72.266,0
2062.858,-970.215,277.344,594.238,993.652,64.453,0
2062.862,-970.215,295.410,606.934,994.629,34.180,0
2062.866,-970.215,327.148,648.438,-999.512,30.762,0
2062.870,-970.215,359.863,678.223,999.512,24.902,0
2062.874,-970.215,407.715,777.832,999.512,142.090,0
2062.878,-970.215,472.656,954.102,999.512,79.102,0
2062.882,-970.215,498.047,996.582,999.512,-83.496,0
2062.886,-970.215,508.789,981.934,999.512,-51.270,0
2062.890,-970.215,518.555,962.402,999.512,-7.812,0
2062.894,-970.215,530.273,944.824,999.512,23.926,0
2062.897,-970.215,522.949,913.574,999.512,13.672,0
2062.901,-970.215,512.207,884.766,999.512,7.324,0
2062.905,-970.215,508.301,861.816,999.512,6.836,0
2062.909,-970.215,487.305,797.363,999.512,26.367,0
2062.913,-970.215,470.215,753.418,999.512,39.062,0
2062.917,-970.215,462.402,754.395,-1000.000,9.277,0
2062.921,-970.215,434.570,701.172,-1000.000,-17.090,0
2062.925,-970.215,447.754,758.301,991.699,77.148,0
2062.929,-970.215,492.188,914.551,994.629,196.777,0
2062.933,-970.215,475.586,925.781,936.523,35.645,0
2062.937,-970.215,391.113,638.672,487.305,-212.402,0
2062.940,-971.680,323.730,290.039,2.930,-84.961,0
2062.944,-969.727,295.410,154.297,-300.293,33.691,0
2062.948,-924.316,276.855,80.078,-707.031,14.160,0
2062.952,-1000.000,277.344,53.711,-934.570,21.484,0
2062.956,-384.766,254.883,14.648,-991.211,18.555,0
2062.960,832.520,193.848,-52.246,-752.930,25.391,0
2062.964,956.543,138.184,-26.367,6.836,3.418,0
2062.968,937.988,61.523,-45.898,646.484,3.906,0
2062.972,-983.887,36.621,36.133,930.664,205.566,0
2062.976,994.141,55.664,199.219,996.582,87.891,0
2062.979,-999.023,-9.766,49.316,991.211,-159.668,0
2062.983,999.512,-67.871,-131.348,-998.535,10.254,0
2062.987,999.512,-76.172,-157.715,992.188,36.621,0
2062.991,999.512,-61.035,-126.953,910.645,59.082,0
2062.995,999.512,-58.594,-124.023,735.840,70.801,0
2062.999,999.512,-67.383,-196.289,478.516,15.137,0
2063.003,999.512,-70.801,-274.902,281.250,86.914,0
2063.007,999.512,-83.496,-326.660,36.621,111.816,0
2063.011,999.512,-69.336,-323.730,-271.484,76.660,0
2063.015,999.512,-51.758,-307.129,-495.605,32.715,0
2063.019,999.512,-54.688,-303.223,-613.770,91.309,0
2063.022,999.512,-3.418,-83.496,-356.445,236.816,0
2063.026,999.512,19.043,66.895,-440.430,40.527,0
2063.030,999.512,-44.922,-191.895,-957.520,-165.039,0
2063.034,999.512,-66.895,-334.961,-980.469,-37.598,0
2063.038,999.512,-68.848,-328.125,-952.148,-0.488,0
2063.042,999.512,-85.938,-355.469,-973.633,12.207,0
2063.046,999.512,-93.262,-363.770,-960.449,33.691,0
2063.050,999.512,-81.055,-324.219,-884.277,127.441,0
2063.054,999.512,-67.871,-206.543,-734.375,78.125,0
2063.058,999.512,-80.078,-191.895,-682.129,-79.590,0
2063.062,999.512,-90.332,-254.883,-653.809,-9.766,0
2063.065,999.512,-90.820,-212.402,-450.684,50.293,0
2063.069,-995.605,-62.988,-65.918,-38.574,180.664,0
2063.073,932.129,-32.715,116.699,287.109,95.215,0
2063.077,-864.746,-74.707,-9.277,167.480,-125.000,0
2063.081,314.453,-89.844,-153.809,283.203,7.812,0
2063.085,-1000.000,-42.480,-77.148,231.934,67.871,0
2063.089,-970.703,35.645,-15.137,-271.973,83.984,0
2063.093,-935.059,124.023,119.141,99.121,99.609,0
2063.097,-979.492,194.336,352.539,919.434,83.008,0
2063.101,-970.215,263.184,521.484,-984.375,86.914,0
2063.104,-970.215,323.730,598.145,974.609,65.430,0
2063.108,-970.215,379.883,696.289,-996.094,73.730,0
2063.112,-970.215,433.105,813.965,999.512,59.570,0
2063.116,-970.215,444.336,829.590,999.512,1.465,0
2063.120,-970.215,486.816,933.105,999.512,83.008,0
2063.124,-970.215,479.492,914.062,999.512,-62.500,0
2063.128,-970.215,392.578,662.109,999.512,-158.203,0
2063.132,-970.215,356.445,545.410,999.512,-55.664,0
2063.136,-970.215,327.637,461.914,999.023,1.465,0
2063.140,-970.215,297.852,397.949,999.512,18.555,0
2063.144,-970.215,274.902,372.559,999.512,-12.207,0
2063.147,-970.215,249.023,309.082,994.629,43.457,0
2063.151,-970.215,220.215,251.953,-994.141,59.082,0
2063.155,-970.215,199.707,224.609,949.219,26.367,0
2063.159,-970.215,207.031,261.230,857.910,89.844,0
2063.163,-972.656,201.172,277.344,703.613,17.578,0
2063.167,-950.195,215.820,293.945,442.383,84.473,0
2063.171,-974.121,250.977,392.090,120.117,43.457,0
2063.175,-829.590,206.055,188.965,-444.824,-144.043,0
2063.179,106.934,150.391,-62.500,-591.797,14.160,0
2063.183,965.820,98.633,-86.426,-23.438,14.160,0
2063.187,996.582,28.320,-89.355,639.648,-8.789,0
2063.190,978.027,-26.855,-94.727,947.754,-14.648,0
2063.194,-995.117,-58.594,-117.188,996.094,-3.418,0
2063.198,999.512,-85.938,-157.715,992.676,15.137,0
2063.202,999.512,-104.004,-178.223,-999.023,-5.371,0
2063.206,999.512,-94.238,-129.395,-999.512,102.051,0
2063.210,999.512,-97.656,-104.980,996.582,16.602,0
2063.214,999.512,-128.906,-208.008,980.957,-55.176,0
2063.218,999.512,-86.914,-56.641,-978.516,153.809,0
2063.222,999.512,-73.730,-8.789,717.285,-61.035,0
2063.226,999.512,-97.656,-219.238,220.215,-102.539,0
2063.229,999.512,-84.961,-261.230,-3.906,18.066,0
2063.233,999.512,-105.469,-346.191,-201.172,-27.832,0
2063.237,999.512,-109.863,-402.832,-423.828,20.996,0
2063.241,999.512,-106.445,-424.316,-516.113,68.359,0
2063.245,999.512,-114.746,-443.848,-603.027,92.773,0
2063.249,999.512,-116.699,-450.684,-778.320,83.008,0
2063.253,999.512,-106.934,-381.348,-590.820,142.090,0
2063.257,999.512,-101.074,-267.090,-439.941,78.125,0
2063.261,999.512,-125.488,-349.609,-653.320,-13.672,0
2063.265,999.512,-101.074,-301.758,-551.270,204.102,0
2063.269,999.512,-59.082,-93.262,-531.738,100.098,0
2063.272,999.512,-95.703,-246.582,-910.645,-151.855,0
2063.276,999.512,-125.977,-416.992,-979.004,-2.930,0
2063.280,999.512,-133.789,-432.129,-966.309,24.414,0
2063.284,999.512,-136.230,-430.664,-935.547,109.375,0
2063.288,999.512,-132.812,-377.441,-852.539,118.164,0
2063.292,999.512,-149.902,-402.344,-785.156,35.645,0
2063.296,999.512,-165.527,-439.453,-731.445,63.965,0
2063.300,999.512,-145.508,-326.172,-558.105,102.539,0
2063.304,999.512,-141.602,-256.836,-420.410,77.637,0
2063.308,999.512,-167.480,-348.145,-525.391,7.324,0
2063.312,999.512,-172.852,-397.949,-430.176,83.496,0
2063.315,999.512,-112.793,-124.023,-163.086,149.414,0
2063.319,999.512,-92.285,-20.508,-369.629,-107.422,0
2063.323,999.512,-128.418,-267.578,-737.305,-119.141,0
2063.327,999.512,-133.301,-344.238,-748.535,30.273,0
2063.331,999.512,-144.531,-349.121,-560.059,39.551,0
2063.335,999.512,-156.738,-333.008,-383.301,32.715,0
2063.339,999.512,-156.250,-312.500,-368.652,-9.766,0
2063.343,999.512,-145.020,-290.527,-343.750,59.570,0
2063.347,999.512,-127.930,-208.496,-166.992,127.441,0
2063.351,999.512,-118.652,-96.191,75.684,17.578,0
2063.354,999.512,-129.883,-112.305,25.391,-57.617,0
2063.358,999.512,-154.297,-268.555,-145.996,-42.480,0
2063.362,999.512,-119.629,-181.641,85.449,187.988,0
2063.366,999.512,-82.520,18.066,246.582,156.738,0
2063.370,999.512,-122.070,-127.441,25.391,-92.285,0
2063.374,999.512,-153.320,-291.992,44.922,41.016,0
2063.378,999.512,-157.715,-292.480,100.586,71.777,0
2063.382,999.512,-144.043,-272.949,9.766,43.457,0
2063.386,999.512,-132.812,-274.414,-90.820,51.270,0
2063.390,999.512,-124.023,-277.832,-98.145,63.477,0
2063.394,999.512,-92.285,-176.270,-10.742,102.051,0
2063.397,999.512,-75.195,-108.887,-7.324,38.086,0
2063.401,999.512,-79.102,-184.082,-238.770,14.160,0
2063.405,999.512,-57.617,-167.969,-358.398,54.688,0
2063.409,999.512,-40.039,-146.484,-342.285,50.781,0
2063.413,999.512,12.695,47.852,-191.406,106.934,0
2063.417,999.512,34.668,104.492,-458.984,-102.539,0
2063.421,999.512,6.348,-133.789,-893.555,-110.840,0
2063.425,999.512,3.906,-198.730,-936.523,16.602,0
2063.429,999.512,1.953,-200.684,-854.980,18.555,0
2063.433,999.512,-9.277,-209.961,-744.141,61.523,0
2063.437,999.512,-14.648,-216.309,-673.828,86.914,0
2063.440,999.512,20.996,-87.402,-514.160,124.023,0
2063.444,999.512,41.992,15.625,-426.270,42.480,0
2063.448,-1000.000,25.879,-62.012,-506.836,-40.039,0
2063.452,975.586,23.438,-93.262,-475.098,12.207,0
2063.456,-967.285,20.996,-111.816,-532.715,-39.062,0
2063.460,730.469,76.660,36.133,-435.547,128.418,0
2063.464,124.512,151.855,258.301,-603.516,105.469,0
2063.468,234.863,129.883,99.609,-994.141,-160.156,0
2063.472,490.234,100.098,-44.434,-966.309,-47.363,0
2063.476,128.906,113.281,-5.859,-962.402,32.715,0
2063.479,-99.609,116.699,-5.859,-972.168,-10.254,0
2063.483,-143.066,111.816,-17.090,-970.215,-20.020,0
2063.487,-566.895,134.277,63.477,-970.215,35.645,0
2063.491,-660.645,159.668,149.414,-970.215,26.367,0
2063.495,-429.199,140.625,87.891,-971.191,-25.879,0
2063.499,-396.973,117.676,1.465,-965.332,36.621,0
2063.503,-317.383,104.004,-35.156,-978.027,60.547,0
2063.507,-135.254,98.633,-54.688,-957.031,156.250,0
2063.511,-355.469,163.086,178.711,-886.719,257.324,0
2063.515,-390.625,168.457,242.188,-945.312,-38.086,0
2063.519,235.840,113.770,38.086,-990.723,-86.426,0
2063.522,459.473,113.770,64.941,-824.707,21.973,0
2063.526,503.418,101.562,90.820,-650.391,-63.477,0
2063.530,892.578,58.594,20.020,-282.715,-13.184,0
2063.534,-979.980,29.297,90.820,473.633,78.613,0
2063.538,985.352,16.602,214.844,941.406,25.391,0
2063.542,-999.023,-7.812,176.270,987.793,-52.246,0
2063.546,999.512,-23.926,99.609,990.234,-49.805,0
2063.550,999.512,-22.949,78.125,-998.047,37.109,0
2063.554,999.512,-34.180,25.391,995.117,22.949,0
2063.558,999.512,19.043,166.016,-998.535,193.359,0
2063.562,999.512,77.637,361.816,986.328,129.395,0
2063.565,999.512,42.969,220.703,840.332,-167.969,0
2063.569,999.512,16.113,76.660,870.605,-27.344,0
2063.573,999.512,0.977,61.523,-983.398,28.320,0
2063.577,999.512,-8.789,40.039,981.934,38.086,0
2063.581,999.512,11.719,99.609,974.121,105.957,0
2063.585,999.512,40.039,203.125,-996.094,62.988,0
2063.589,999.512,24.902,152.832,993.164,-34.180,0
2063.593,999.512,4.395,71.289,-990.723,-13.672,0
2063.597,999.512,14.648,80.566,964.844,17.578,0
2063.601,999.512,25.879,76.660,842.285,-26.855,0
2063.604,999.512,41.504,68.848,882.324,97.656,0
2063.608,999.512,109.375,296.875,-988.281,214.844,0
2063.612,999.512,120.605,341.797,863.281,-77.148,0
2063.616,999.512,89.844,139.160,562.500,-97.168,0
2063.620,999.512,95.703,91.309,501.953,20.020,0
2063.624,999.512,100.098,82.031,526.367,8.789,0
2063.628,999.512,124.023,173.340,671.875,71.289,0
2063.632,999.512,132.812,245.605,753.906,1.465,0
2063.636,999.512,120.605,159.668,449.707,-50.293,0
2063.640,-1000.000,134.277,138.672,348.145,56.641,0
2063.644,999.512,142.578,134.277,314.941,24.902,0
2063.647,969.727,147.949,95.215,128.418,9.277,0
2063.651,-930.664,143.066,37.598,2.930,0.488,0
2063.655,633.789,198.242,188.965,-30.273,173.828,0
2063.659,196.777,275.879,360.352,-487.793,130.371,0
2063.663,449.219,255.859,154.785,-1000.000,-93.262,0
2063.667,370.605,233.398,20.020,-958.984,19.043,0
2063.671,169.922,230.469,11.719,-961.426,65.918,0
2063.675,-197.754,255.371,91.797,-972.656,94.727,0
2063.679,-568.848,279.785,185.547,-970.215,-0.977,0
2063.683,-826.660,259.766,127.930,-970.215,0.000,0
2063.687,-970.703,250.977,104.492,-970.215,67.383,0
2063.690,-966.309,247.070,99.609,-970.215,13.672,0
2063.694,-967.773,239.746,67.383,-970.215,59.570,0
2063.698,-971.191,249.023,119.141,-970.215,8.789,0
2063.702,-970.215,255.859,149.414,-970.215,75.684,0
2063.706,-970.215,312.012,344.238,-970.215,138.672,0
2063.710,-970.215,308.594,366.211,-970.215,-140.137,0
2063.714,-970.215,252.930,157.715,-970.215,-100.586,0
2063.718,-970.215,236.816,98.145,-970.215,52.246,0
2063.722,-970.215,248.047,164.551,-970.215,85.449,0
2063.726,-970.215,258.301,228.516,-970.215,11.230,0
2063.729,-970.215,230.957,148.438,-970.215,-21.484,0
2063.733,-970.215,212.891,116.211,-970.215,-0.488,0
2063.737,-970.215,206.543,121.094,-970.215,-0.977,0
2063.741,-970.215,198.730,111.816,-970.215,13.184,0
2063.745,-971.680,192.383,108.887,-970.215,44.922,0
2063.749,-964.844,171.875,71.777,-970.215,24.414,0
2063.753,-976.562,213.867,230.957,-971.680,172.852,0
2063.757,-938.477,273.926,452.148,-965.332,133.301,0
2063.761,-799.805,223.145,311.035,-950.684,-134.766,0
2063.765,-586.914,178.711,123.047,-998.535,-10.254,0
2063.769,-29.297,169.434,153.809,-543.945,151.367,0
2063.772,231.934,127.930,233.398,141.602,65.918,0
2063.776,438.965,66.895,184.082,530.273,-18.555,0
2063.780,942.383,17.578,137.695,937.012,7.812,0
2063.784,-987.793,-5.859,126.465,-988.770,17.578,0
2063.788,984.375,-10.254,109.863,985.352,27.344,0
2063.792,-998.047,-8.301,105.469,-997.559,64.453,0
2063.796,999.512,-7.324,102.051,999.512,1.465,0
2063.800,999.512,8.789,134.277,999.512,100.098,0
2063.804,994.141,80.078,363.281,999.512,163.086,0
2063.808,997.070,81.055,379.883,999.512,-171.875,0
2063.812,-999.512,28.320,157.227,999.512,-93.750,0
2063.815,999.023,42.480,175.293,999.512,69.824,0
2063.819,999.512,76.172,290.527,-1000.000,-25.391,0
2063.823,999.512,72.266,268.555,996.582,-89.844,0
2063.827,999.512,42.969,154.297,-997.559,-88.379,0
2063.831,999.512,27.832,89.844,993.652,-32.227,0
2063.835,999.512,26.367,61.523,940.430,16.113,0
2063.839,999.512,26.855,34.180,930.664,46.387,0
2063.843,999.512,28.809,21.973,868.164,75.684,0
2063.847,999.512,20.508,-30.273,801.270,58.594,0
2063.851,999.512,73.242,154.785,945.801,203.125,0
2063.854,999.512,123.535,309.082,738.770,132.812,0
2063.858,999.512,86.914,75.684,246.582,-47.363,0
2063.862,999.512,97.168,42.480,215.820,115.234,0
2063.866,999.512,106.445,93.262,229.492,86.426,0
2063.870,999.512,82.520,-21.973,-32.715,22.949,0
2063.874,999.512,93.262,-50.781,-217.773,128.906,0
2063.878,999.512,116.699,26.367,-354.492,54.688,0
2063.882,999.512,108.887,-32.715,-694.824,-36.133,0
2063.886,999.512,101.562,-114.258,-910.156,39.062,0
2063.890,999.512,92.285,-142.090,-951.660,80.078,0
2063.894,999.512,72.754,-171.875,-969.238,49.316,0
2063.897,999.512,84.961,-87.402,-969.238,100.586,0
2063.901,999.512,110.352,84.961,-970.215,73.730,0
2063.905,999.512,-95.215,-302.246,-970.215,-217.285,0
2063.909,999.512,-435.547,-889.160,-970.215,-180.176,0
2063.913,999.512,-624.023,-973.633,-970.215,-124.512,0
2063.917,999.512,-666.016,-956.543,-970.215,-130.859,0
2063.921,999.512,-642.578,-971.680,-970.215,-9.766,0
2063.925,999.512,-611.816,-969.727,-970.215,45.898,0
2063.929,999.512,-579.590,-967.773,-970.215,68.848,0
2063.933,999.512,-534.668,-973.145,-970.215,149.902,0
2063.937,999.512,-470.703,-917.480,-970.215,111.816,0
2063.940,999.512,-400.879,-794.434,-970.215,-3.906,0
2063.944,-1000.000,-347.656,-743.652,-970.215,9.277,0
2063.948,998.047,-240.234,-492.188,-970.215,226.562,0
2063.952,939.941,-129.395,-205.078,-970.215,119.141,0
2063.956,-867.676,-86.914,-188.477,-970.215,-34.668,0
2063.960,193.848,-13.184,-127.441,-970.215,53.223,0
2063.964,-1000.000,53.223,-63.965,-970.215,22.949,0
2063.968,-951.660,107.422,3.906,-970.215,54.688,0
2063.972,-944.336,150.879,75.195,-970.215,56.152,0
2063.976,-976.562,211.914,178.711,-970.215,47.363,0
2063.979,-970.215,284.668,281.250,-971.191,68.359,0
2063.983,-970.215,340.332,352.539,-965.820,75.684,0
2063.987,-970.215,395.996,450.684,-961.914,52.246,0
2063.991,-970.215,452.148,578.613,-947.754,33.691,0
2063.995,-970.215,511.230,760.742,-633.301,153.320,0
2063.999,-970.215,579.102,960.938,-97.656,96.680,0
2064.003,-970.215,604.980,-995.605,162.109,-111.328,0
2064.007,-970.215,585.449,991.699,544.434,-38.086,0
2064.011,-970.215,548.340,-998.047,969.727,-12.207,0
2064.015,-970.215,523.926,976.562,-998.047,-36.621,0
2064.019,-970.215,529.297,929.199,988.281,-8.789,0
2064.022,-970.215,535.156,898.438,-998.047,31.738,0
2064.026,-970.215,541.992,916.016,999.512,17.090,0
2064.030,-970.215,534.180,917.969,999.512,-30.273,0
2064.034,-970.215,510.254,869.629,999.512,-0.977,0
2064.038,-970.215,512.695,858.887,999.512,26.367,0
2064.042,-970.215,504.395,820.312,999.512,6.348,0
2064.046,-970.215,534.180,891.602,999.512,210.449,0
2064.050,-970.215,567.383,-988.281,998.535,146.484,0
2064.054,-970.215,520.508,969.238,-998.535,-72.754,0
2064.058,-970.215,474.121,845.703,989.746,-32.227,0
2064.062,-970.215,445.801,708.984,990.234,-6.348,0
2064.065,-970.215,417.969,610.352,968.750,74.707,0
2064.069,-970.215,391.113,544.922,738.770,56.641,0
2064.073,-970.215,381.348,513.672,527.832,32.715,0
2064.077,-970.215,372.559,472.656,401.855,61.035,0
2064.081,-970.215,363.770,416.016,76.660,44.922,0
2064.085,-970.215,373.535,401.855,-203.613,56.152,0
2064.089,-970.215,369.629,365.234,-501.953,7.812,0
2064.093,-971.680,351.074,316.406,-756.836,124.023,0
2064.097,-954.102,413.574,578.613,-508.789,329.590,0
2064.101,-1000.000,447.266,764.160,-650.879,-61.523,0
2064.104,-710.938,365.723,446.289,-1000.000,-255.371,0
2064.108,-765.137,332.520,287.109,-934.082,52.734,0
2064.112,-123.047,315.918,291.992,-957.520,62.500,0
2064.116,-912.598,235.352,159.668,-614.258,-37.109,0
2064.120,917.969,169.922,136.719,188.477,-15.137,0
2064.124,893.555,117.676,156.738,687.500,-11.230,0
2064.128,-982.910,62.500,108.887,878.906,-0.977,0
2064.132,997.559,26.367,62.988,989.746,50.293,0
2064.136,998.047,5.859,44.434,-995.605,29.297,0
2064.140,999.512,-12.207,-14.648,944.336,38.086,0
2064.144,999.512,8.789,39.551,919.922,125.977,0
2064.147,999.512,40.527,133.789,681.641,25.391,0
2064.151,999.512,32.715,8.301,-9.766,-87.891,0
2064.155,999.512,32.715,-150.391,-523.926,17.578,0
2064.159,999.512,46.387,-200.195,-794.922,92.285,0
2064.163,999.512,48.828,-199.219,-970.215,-17.090,0
2064.167,999.512,54.688,-166.504,-967.285,-50.293,0
2064.171,999.512,60.547,-121.582,-966.797,-22.949,0
2064.175,999.512,41.504,-133.301,-971.191,-116.699,0
2064.179,999.512,21.973,-186.523,-971.191,-52.246,0
2064.183,999.512,17.090,-209.473,-965.820,63.965,0
2064.187,999.512,4.883,-211.426,-976.562,0.977,0
2064.190,999.512,29.785,-118.164,-959.473,117.676,0
2064.194,999.512,114.258,165.039,-867.676,300.293,0
2064.198,999.512,125.000,245.117,-922.852,4.883,0
2064.202,-999.512,58.105,-0.488,-982.910,-193.359,0
2064.206,994.629,28.809,-145.020,-964.844,-5.859,0
2064.210,-992.676,12.207,-185.547,-970.703,60.059,0
2064.214,994.629,5.859,-195.801,-970.703,46.875,0
2064.218,890.625,25.391,-152.344,-968.750,29.297,0
2064.222,-987.305,23.438,-153.320,-972.656,27.344,0
2064.226,947.754,18.555,-162.109,-965.332,76.660,0
2064.229,-190.430,56.152,-66.406,-948.242,103.027,0
2064.233,-543.457,67.383,-38.086,-967.285,44.434,0
2064.237,-606.934,72.754,-13.672,-972.168,66.406,0
2064.241,-1000.000,156.250,251.953,-968.750,157.227,0
2064.245,-958.008,169.434,317.871,-970.215,-26.367,0
2064.249,-965.332,97.656,97.168,-970.215,-160.645,0
2064.253,-971.191,86.914,18.555,-970.215,11.719,0
2064.257,-970.215,85.938,8.301,-970.215,57.129,0
2064.261,-970.215,72.266,-12.695,-970.215,76.172,0
2064.265,-970.215,85.938,24.414,-970.215,68.848,0
2064.269,-970.215,92.285,57.129,-968.750,23.438,0
2064.272,-970.215,83.008,40.527,-970.215,36.621,0
2064.276,-970.215,98.633,76.172,-948.730,17.090,0
2064.280,-970.215,99.609,86.426,-875.000,70.801,0
2064.284,-970.215,97.168,126.465,-785.645,66.406,0
2064.288,-970.215,130.859,300.293,-266.113,144.531,0
2064.292,-970.215,144.531,490.723,262.207,100.098,0
2064.296,-970.215,97.656,369.141,70.801,-155.762,0
2064.300,-970.215,70.801,208.008,211.914,-39.062,0
2064.304,-970.215,62.988,223.633,485.352,18.066,0
2064.308,-970.215,49.316,203.125,553.711,17.090,0
2064.312,-970.215,49.805,208.984,831.543,32.227,0
2064.315,-970.215,59.082,257.812,-990.234,7.812,0
2064.319,-970.215,64.453,300.293,994.141,-19.531,0
2064.323,-970.215,66.406,286.133,991.211,-37.598,0
2064.327,-970.215,58.594,218.262,993.652,33.203,0
2064.331,-970.215,62.012,249.512,999.512,71.777,0
2064.335,-970.215,69.824,272.949,979.980,21.484,0
2064.339,-970.215,108.887,393.555,-957.031,135.254,0
2064.343,-970.215,120.605,417.969,699.707,17.578,0
2064.347,-970.215,95.703,227.051,323.242,-81.055,0
2064.351,-970.215,93.750,142.090,270.508,12.207,0
2064.354,-970.215,83.984,50.293,35.156,30.273,0
2064.358,-970.215,96.191,44.434,13.672,54.199,0
2064.362,-970.215,110.352,60.059,-87.402,51.270,0
2064.366,-970.215,109.375,37.109,-278.320,47.363,0
2064.370,-970.215,114.258,37.109,-237.305,35.156,0
2064.374,-970.215,123.535,40.039,-284.668,35.156,0
2064.378,-970.215,143.066,129.883,-282.227,50.781,0
2064.382,-970.215,153.320,182.129,-407.227,-77.148,0
2064.386,-970.215,172.852,187.988,-399.414,69.824,0
2064.390,-970.215,198.730,314.941,-336.914,112.305,0
2064.394,-970.215,172.363,201.172,-690.918,-130.371,0
2064.397,-970.215,152.344,49.805,-763.184,-52.734,0
2064.401,-970.215,132.324,-13.184,-863.281,59.570,0
2064.405,-970.215,136.719,26.367,-753.418,92.285,0
2064.409,-970.215,138.184,85.449,-557.617,-25.879,0
2064.413,-970.215,114.746,8.789,-734.863,-33.203,0
2064.417,-970.215,112.793,-3.906,-713.867,-5.371,0
2064.421,-970.215,103.516,-4.395,-686.035,10.742,0
2064.425,-970.215,104.492,48.340,-653.809,74.707,0
2064.429,-970.215,110.840,133.301,-478.027,6.836,0
2064.433,-970.215,85.449,39.551,-449.219,11.719,0
2064.437,-970.215,111.816,185.547,-125.000,196.289,0
2064.440,-970.215,121.094,275.879,-239.258,24.902,0
2064.444,-970.215,78.125,40.527,-550.293,-60.059,0
2064.448,-970.703,55.176,-41.504,-456.055,27.832,0
2064.452,-968.750,39.551,-66.895,-490.723,43.945,0
2064.456,-976.562,35.645,-62.012,-367.188,44.434,0
2064.460,-950.684,28.809,-66.895,-481.934,39.062,0
2064.464,-936.523,31.250,-42.480,-505.859,90.820,0
2064.468,-956.055,29.785,-35.156,-350.586,57.617,0
2064.472,-107.910,23.438,-19.043,-160.645,108.887,0
2064.476,690.430,-14.160,59.082,613.770,47.363,0
2064.479,653.809,-93.750,-27.832,-968.262,-48.828,0
2064.483,940.918,-90.820,-20.508,974.609,184.570,0
2064.487,-973.145,-41.504,188.965,995.605,76.172,0
2064.491,982.910,-84.473,76.660,-999.023,-183.594,0
2064.495,-996.582,-142.578,-133.789,999.512,-30.273,0
2064.499,999.512,-164.551,-185.547,997.559,44.922,0
2064.503,999.512,-165.039,-186.035,997.070,30.762,0
2064.507,999.512,-168.457,-190.430,-1000.000,-10.742,0
2064.511,999.512,-178.223,-214.844,997.559,-4.395,0
2064.515,999.512,-173.828,-224.121,-997.070,51.270,0
2064.519,999.512,-158.203,-174.316,989.258,131.348,0
2064.522,999.512,-142.090,-108.398,978.516,99.121,0
2064.526,999.512,-145.508,-128.906,-998.535,-10.742,0
2064.530,999.512,-164.551,-213.379,980.957,65.430,0
2064.534,999.512,-114.746,-41.016,-976.074,204.590,0
2064.538,999.512,-84.473,40.039,845.215,14.160,0
2064.542,999.512,-124.512,-192.871,471.680,-70.312,0
2064.546,999.512,-128.418,-270.508,351.074,7.812,0
2064.550,999.512,-106.445,-252.441,305.176,4.883,0
2064.554,999.512,-98.633,-251.465,298.828,24.902,0
2064.558,999.512,-107.422,-270.996,192.383,53.223,0
2064.562,999.512,-88.867,-252.441,95.703,61.035,0
2064.565,999.512,-52.246,-121.094,357.422,67.871,0
2064.569,999.512,-44.434,-34.180,389.160,-28.320,0
2064.573,999.023,-47.852,-82.031,297.363,-78.125,0
2064.577,999.512,-63.965,-184.082,228.027,-10.742,0
2064.581,999.023,-39.551,-113.281,364.746,232.910,0
2064.585,995.605,7.324,126.953,694.336,148.926,0
2064.589,988.770,-20.020,24.414,278.809,-157.715,0
2064.593,-973.633,-30.762,-165.039,-49.805,-32.715,0
2064.597,896.484,-20.020,-191.895,-32.227,86.914,0
2064.601,811.035,-4.395,-190.430,-245.605,91.797,0
2064.604,-908.203,7.324,-185.059,-408.203,4.395,0
2064.608,569.824,26.855,-164.551,-545.410,-12.695,0
2064.612,348.633,79.102,-87.402,-841.797,100.586,0
2064.616,-886.719,94.238,-57.129,-965.332,43.457,0
2064.620,428.223,87.891,-99.609,-957.031,-41.992,0
2064.624,215.332,88.379,-119.629,-976.074,-41.992,0
2064.628,-793.945,64.453,-172.852,-966.797,38.086,0
2064.632,191.895,128.906,52.246,-855.957,215.332,0
2064.636,-256.836,153.809,141.113,-922.363,12.207,0
2064.640,-935.547,94.727,-41.504,-987.793,-58.105,0
2064.644,568.848,93.750,-43.945,-961.426,-14.648,0
2064.647,-40.527,90.820,-72.754,-972.656,-25.391,0
2064.651,955.566,67.871,-129.883,-972.168,29.297,0
2064.655,385.742,61.523,-145.508,-942.383,77.637,0
2064.659,-925.781,104.004,-23.926,-953.613,141.113,0
2064.663,-238.770,123.047,61.035,-975.098,-30.762,0
2064.667,-328.613,100.098,-10.742,-968.262,-77.148,0
2064.671,-1000.000,104.492,-25.879,-970.703,39.062,0
2064.675,-768.555,86.914,-53.223,-970.215,-22.949,0
2064.679,-794.434,122.559,79.590,-970.215,131.348,0
2064.683,-1000.000,192.383,311.035,-970.215,69.824,0
2064.687,-703.613,141.602,150.879,-970.215,-164.551,0
2064.690,-693.848,104.004,-3.418,-970.703,-21.484,0
2064.694,-1000.000,106.934,6.836,-966.797,20.508,0
2064.698,-412.109,96.680,-3.418,-979.980,74.707,0
2064.702,-209.961,91.797,-1.465,-943.848,48.828,0
2064.706,-886.230,114.258,86.426,-904.785,41.504,0
2064.710,194.824,110.352,109.863,-976.074,-23.438,0
2064.714,-882.812,48.340,-4.883,-541.016,-59.570,0
2064.718,950.684,-6.836,-20.996,172.852,33.691,0
2064.722,992.676,-66.895,-24.902,675.781,-12.695,0
2064.726,-998.047,-107.422,-26.367,984.375,27.344,0
2064.729,999.512,-49.316,190.918,996.094,193.848,0
2064.733,999.512,-54.688,214.355,994.141,-47.852,0
2064.737,999.512,-119.141,-26.367,973.633,-69.824,0
2064.741,999.512,-112.305,-41.992,995.117,56.641,0
2064.745,999.512,-130.859,-70.312,987.793,-21.484,0
2064.749,999.512,-145.020,-142.578,911.133,33.691,0
2064.753,999.512,-112.793,-61.523,983.398,125.000,0
2064.757,999.512,-93.750,15.137,937.988,119.141,0
2064.761,999.512,-92.773,-27.832,724.121,29.785,0
2064.765,999.512,-95.703,-104.492,585.938,-15.137,0
2064.769,999.512,-91.797,-155.762,333.984,29.785,0
2064.772,999.512,-89.844,-233.887,53.223,41.992,0
2064.776,999.512,-40.527,-116.699,206.543,267.578,0
2064.780,999.512,8.789,102.539,162.598,155.273,0
2064.784,999.512,-17.578,-59.570,-435.059,-121.582,0
2064.788,999.512,-19.531,-212.891,-621.582,52.734,0
2064.792,999.512,-15.137,-210.449,-591.797,72.754,0
2064.796,999.512,-9.766,-218.262,-834.473,32.227,0
2064.800,999.512,29.297,-108.887,-757.324,95.703,0
2064.804,999.512,32.227,-21.973,-541.016,21.484,0
2064.808,999.512,5.371,-117.188,-780.273,-40.527,0
2064.812,999.512,10.254,-158.203,-797.363,14.648,0
2064.815,999.512,28.320,-101.074,-718.750,71.289,0
2064.819,-1000.000,28.320,-96.191,-833.496,15.137,0
2064.823,991.699,36.133,-100.098,-705.078,59.570,0
2064.827,-997.559,95.703,147.949,-392.090,176.270,0
2064.831,-978.516,91.309,169.434,-539.062,-53.223,0
2064.835,736.328,65.918,-30.273,-804.199,-57.129,0
2064.839,797.363,76.660,-58.594,-937.012,25.391,0
2064.843,-819.824,55.664,-103.027,-754.883,44.922,0
2064.847,44.922,78.613,14.648,-580.566,134.277,0
2064.851,-522.461,128.418,120.117,-881.836,62.500,0
2064.854,231.445,123.535,32.715,-997.070,-51.758,0
2064.858,-477.051,128.418,5.371,-954.590,9.766,0
2064.862,-1000.000,144.043,35.156,-972.656,24.414,0
2064.866,-938.965,141.602,48.828,-970.215,-2.930,0
2064.870,-966.309,143.555,30.273,-970.215,-19.531,0
2064.874,-971.191,200.684,194.824,-970.215,144.043,0
2064.878,-970.215,244.141,381.836,-970.215,31.250,0
2064.882,-970.215,199.707,239.746,-970.215,-205.078,0
2064.886,-970.215,169.922,112.305,-970.215,-54.199,0
2064.890,-970.215,153.320,74.707,-970.215,-20.508,0
2064.894,-970.215,182.617,165.039,-970.215,42.969,0
2064.897,-970.215,204.102,250.000,-970.215,-25.391,0
2064.901,-970.215,170.898,152.832,-970.215,-103.027,0
2064.905,-970.215,165.039,104.004,-970.215,-10.254,0
2064.909,-970.215,177.246,116.211,-970.703,16.602,0
2064.913,-970.215,167.480,103.027,-967.773,25.879,0
2064.917,-970.215,166.992,109.863,-974.609,-25.879,0
2064.921,-970.215,186.035,141.113,-961.426,90.332,0
2064.925,-970.215,238.770,340.820,-931.641,208.984,0
2064.929,-970.215,235.840,374.023,-964.355,-104.004,0
2064.933,-970.215,206.543,232.422,-965.820,-55.664,0
2064.937,-971.191,195.801,199.219,-989.746,60.547,0
2064.940,-962.891,192.383,222.656,-880.859,60.059,0
2064.944,-989.746,193.359,255.371,-789.062,42.969,0
2064.948,-902.344,157.715,152.832,-912.109,16.602,0
2064.952,-814.941,153.320,157.715,-822.754,62.500,0
2064.956,-1000.000,149.902,181.641,-760.254,-4.883,0
2064.960,-507.812,128.906,134.766,-740.723,-28.809,0
2064.964,-191.895,103.027,148.438,-235.352,-20.020,0
2064.968,-834.961,57.617,127.441,209.961,19.531,0
2064.972,-244.629,69.824,258.301,582.520,224.121,0
2064.976,-248.047,93.262,464.844,-982.422,110.840,0
2064.979,-878.906,52.734,336.426,931.641,-139.648,0
2064.983,-127.930,18.066,163.086,893.555,30.273,0
2064.987,-39.551,26.367,193.359,996.582,148.926,0
2064.991,-986.816,61.035,294.434,-985.352,111.816,0
2064.995,-867.188,60.547,262.207,847.656,32.227,0
2064.999,-671.387,46.875,157.715,714.355,29.297,0
2065.003,-954.590,48.340,138.184,776.855,44.434,0
2065.007,-986.816,57.129,141.113,559.082,35.156,0
2065.011,-958.008,83.984,123.047,315.918,73.242,0
2065.015,-973.145,99.609,125.000,312.012,61.035,0
2065.019,-970.215,126.465,147.949,149.902,175.781,0
2065.022,-970.215,209.961,417.969,368.164,207.520,0
2065.026,-970.215,206.055,484.375,404.297,-100.586,0
2065.030,-970.215,175.781,252.441,-187.500,-65.918,0
2065.034,-970.215,202.148,267.090,-90.820,52.734,0
2065.038,-970.215,196.777,375.977,419.434,-25.879,0
2065.042,-970.215,153.320,294.922,386.230,-57.129,0
2065.046,-970.215,127.930,142.578,52.734,9.766,0
2065.050,-966.309,137.207,124.023,43.945,79.102,0
2065.054,-985.840,147.461,200.195,57.617,40.039,0
2065.058,-859.863,144.043,168.457,-196.777,-31.250,0
2065.062,-926.758,151.367,111.328,-331.055,22.949,0
2065.065,-597.656,143.066,56.641,-457.520,15.137,0
2065.069,-36.621,170.898,157.715,-204.102,216.797,0
2065.073,-634.766,206.543,365.723,76.172,117.188,0
2065.077,-175.781,162.598,188.965,-355.957,-130.859,0
2065.081,-964.355,139.648,109.863,-3.906,40.527,0
2065.085,307.129,111.328,203.613,814.453,20.996,0
2065.089,297.363,63.965,122.559,770.508,-39.551,0
2065.093,-852.051,32.715,29.785,775.879,-42.480,0
2065.097,744.629,23.438,27.344,-986.328,-10.254,0
2065.101,769.043,20.508,14.648,996.094,35.645,0
2065.104,-916.992,3.906,-24.414,995.605,12.207,0
2065.108,786.621,13.184,-36.621,929.688,92.773,0
2065.112,768.066,35.156,2.441,837.402,83.008,0
2065.116,-868.164,49.316,32.227,730.469,67.871,0
2065.120,531.738,115.723,220.703,635.254,132.812,0
2065.124,448.242,135.254,191.895,79.102,-86.914,0
2065.128,-858.398,127.930,19.043,-404.297,5.371,0
2065.132,713.379,145.996,43.945,-365.234,71.777,0
2065.136,577.148,127.441,-45.410,-487.305,20.020,0
2065.140,-834.961,113.770,-115.723,-739.746,17.578,0
2065.144,540.527,131.348,-89.355,-818.359,4.883,0
2065.147,183.105,145.020,-81.055,-917.969,65.918,0
2065.151,-809.570,132.812,-91.797,-978.516,29.785,0
2065.155,482.910,138.184,-58.105,-963.867,-32.715,0
2065.159,-213.379,158.203,-0.977,-963.379,4.883,0
2065.163,-903.320,146.973,-5.859,-1000.000,-17.578,0
2065.167,430.664,180.664,138.184,-791.504,150.391,0
2065.171,-572.266,236.816,341.309,-774.414,108.887,0
2065.175,901.855,206.055,235.352,-1000.000,-152.344,0
2065.179,577.148,182.129,166.016,-877.441,-51.758,0
2065.183,-496.582,179.199,153.320,-833.496,-23.438,0
2065.187,812.012,140.625,32.715,-1000.000,-26.367,0
2065.190,734.375,105.469,-24.902,-749.023,27.344,0
2065.194,-215.332,88.379,-22.949,-483.887,115.723,0
2065.198,866.699,65.430,-43.945,-553.223,109.375,0
2065.202,868.652,39.062,-2.930,-0.488,28.320,0
2065.206,-8.301,27.832,51.270,284.668,91.309,0
2065.210,859.863,10.742,13.672,101.074,59.082,0
2065.214,893.555,3.418,45.410,696.777,166.504,0
2065.218,-426.270,67.871,346.191,878.906,192.871,0
2065.222,391.602,104.980,407.715,308.594,-96.680,0
2065.226,990.234,80.566,253.906,412.598,-80.078,0
2065.229,-341.797,85.449,260.742,416.016,-49.805,0
2065.233,308.105,91.797,181.152,-62.988,-99.121,0
2065.237,-999.512,64.453,53.223,73.730,-35.156,0
2065.241,-323.242,55.664,48.828,340.332,71.777,0
2065.245,-70.801,62.012,41.016,10.742,93.262,0
2065.249,480.469,57.617,11.230,-89.844,56.641,0
2065.253,-541.504,75.195,62.012,-44.922,15.625,0
2065.257,-742.676,115.723,93.262,-624.023,-15.625,0
2065.261,-532.715,134.766,34.668,-1000.000,-60.059,0
2065.265,-883.301,207.520,215.332,-937.012,145.996,0
2065.269,-991.699,261.719,401.855,-957.031,138.672,0
2065.272,-957.031,212.891,269.043,-975.098,-58.594,0
2065.276,-972.168,185.059,165.527,-968.750,-35.645,0
2065.280,-970.215,169.434,122.070,-970.703,-62.988,0
2065.284,-970.215,144.531,60.547,-970.215,19.043,0
2065.288,-970.215,164.062,113.281,-969.238,68.359,0
2065.292,-970.215,173.828,153.320,-969.727,-27.832,0
2065.296,-970.215,139.648,68.848,-970.215,-8.789,0
2065.300,-970.215,147.949,83.008,-972.656,16.113,0
2065.304,-970.215,166.016,121.094,-952.148,12.695,0
2065.308,-970.215,154.297,93.750,-996.582,-23.438,0
2065.312,-970.215,172.852,132.324,-851.074,88.379,0
2065.315,-970.215,247.559,459.473,-382.324,248.535,0
2065.319,-970.215,262.207,604.004,-395.020,-17.578,0
2065.323,-970.215,203.613,330.078,-665.527,-139.648,0
2065.327,-970.215,170.410,154.785,-659.668,14.160,0
2065.331,-970.215,152.832,118.164,-563.477,19.531,0
2065.335,-970.215,148.926,125.488,-399.902,20.996,0
2065.339,-970.215,150.879,153.809,-255.859,7.812,0
2065.343,-970.215,132.812,129.883,-357.422,18.555,0
2065.347,-970.215,154.297,198.242,-397.461,21.484,0
2065.351,-970.215,155.273,203.125,-216.309,14.648,0
2065.354,-970.215,113.281,93.262,-248.535,53.223,0
2065.358,-970.215,122.559,113.281,-160.156,57.617,0
2065.362,-970.215,152.344,268.066,244.141,77.148,0
2065.366,-970.215,137.207,310.547,321.777,20.508,0
2065.370,-970.215,114.258,224.609,335.449,-8.789,0
2065.374,-970.215,112.305,226.074,455.566,-2.441,0
2065.378,-970.215,99.121,186.035,353.516,-20.996,0
