timestamps,TP9,AF7,AF8,TP10,Right AUX,Marker0
17515.950,27.344,26.855,27.832,20.020,6.836,0
17515.954,12.207,32.227,30.273,22.461,0.977,0
17515.958,23.926,31.250,28.809,32.715,-9.766,0
17515.962,35.645,28.320,25.879,41.992,27.832,0
17515.965,36.621,28.809,22.461,44.922,39.062,0
17515.969,22.461,31.738,24.902,25.879,10.742,0
17515.973,14.648,34.180,27.832,25.391,24.414,0
17515.977,42.480,32.715,26.855,36.133,81.055,0
17515.981,44.434,29.297,21.973,27.344,79.590,0
17515.985,23.438,28.809,27.344,29.785,42.480,0
17515.989,21.484,31.738,32.227,32.227,-1.953,0
17515.993,20.508,32.715,28.809,33.691,-17.090,0
17515.997,24.902,30.762,26.855,41.504,24.414,0
17516.001,41.016,32.715,26.367,40.039,27.344,0
17516.005,44.434,37.109,31.250,38.086,0.488,0
17516.008,41.504,33.691,30.273,35.645,-7.324,0
17516.012,45.410,30.762,24.414,34.180,88.379,0
17516.016,40.527,28.320,23.438,33.203,135.742,0
17516.020,20.020,26.855,32.227,43.457,27.832,0
17516.024,27.832,30.762,34.180,53.223,-21.973,0
17516.028,39.551,29.785,26.855,46.875,17.090,0
17516.032,24.414,26.367,24.414,41.992,10.254,0
17516.036,17.578,24.902,33.691,32.715,34.180,0
17516.040,26.855,22.461,39.551,27.344,24.414,0
17516.044,34.668,23.926,35.156,40.039,23.926,0
17516.047,30.762,25.879,31.250,38.574,71.289,0
17516.051,21.973,25.391,35.645,28.809,39.551,0
17516.055,12.695,25.391,40.527,35.156,51.758,0
17516.059,12.207,26.367,35.645,38.086,15.625,0
17516.063,29.297,23.926,32.715,32.715,-36.133,0
17516.067,50.781,26.367,34.180,24.902,-26.367,0
17516.071,31.738,34.180,34.668,25.391,9.277,0
17516.075,20.508,34.668,34.180,31.738,26.367,0
17516.079,29.297,32.715,32.227,43.945,-43.457,0
17516.083,29.785,31.250,32.227,37.109,-30.762,0
17516.087,27.344,33.203,37.598,24.902,-1.465,0
17516.090,20.508,35.156,37.109,36.621,36.621,0
17516.094,27.832,31.738,34.668,39.062,41.992,0
17516.098,31.250,28.809,32.715,27.832,19.531,0
17516.102,17.090,30.273,33.691,24.414,27.832,0
17516.106,28.320,26.855,34.668,31.738,15.137,0
17516.110,34.180,25.879,29.785,34.180,29.297,0
17516.114,23.438,28.320,28.320,32.715,91.797,0
17516.118,17.090,31.250,31.250,30.762,53.711,0
17516.122,19.043,35.156,33.691,36.133,24.414,0
17516.126,25.879,35.156,33.203,34.668,24.902,0
17516.130,36.133,34.180,27.344,22.949,2.441,0
17516.133,33.203,36.133,26.367,19.043,22.949,0
17516.137,23.926,38.086,32.227,22.949,18.555,0
17516.141,32.227,33.691,32.715,32.227,-12.207,0
17516.145,20.996,31.738,30.273,44.434,11.230,0
17516.149,14.648,29.297,27.832,40.527,85.449,0
17516.153,12.695,31.250,29.785,21.973,48.828,0
17516.157,8.789,35.645,27.344,21.484,4.883,0
17516.161,13.672,28.320,20.996,17.090,21.484,0
17516.165,20.508,25.391,19.531,8.301,42.480,0
17516.169,18.555,36.133,25.391,16.113,41.504,0
17516.172,16.113,41.504,28.320,21.484,50.293,2
17516.176,24.414,38.086,27.344,27.344,57.617,0
17516.180,33.203,36.133,22.461,38.086,63.477,0
17516.184,45.410,35.156,23.438,36.133,-18.066,0
17516.188,24.902,35.645,27.832,34.180,-33.691,0
17516.192,12.695,35.645,25.391,36.133,67.383,0
17516.196,36.621,31.738,22.949,38.574,41.504,0
17516.200,27.344,29.785,28.320,41.992,37.598,0
17516.204,12.695,34.180,36.133,40.527,88.867,0
17516.208,21.484,31.250,32.227,30.762,60.059,0
17516.212,26.855,27.344,25.391,27.344,66.895,0
17516.215,36.133,30.762,24.414,37.109,85.938,0
17516.219,30.273,35.156,31.738,33.203,9.277,0
17516.223,28.809,33.691,33.691,32.715,-18.066,0
17516.227,34.668,29.297,31.738,44.434,36.133,0
17516.231,35.156,26.855,29.297,41.016,37.109,0
17516.235,26.855,25.391,30.762,32.715,54.688,0
17516.239,23.926,25.879,34.180,30.273,21.973,0
17516.243,21.973,26.855,34.180,30.762,-22.949,0
17516.247,13.672,23.438,30.762,32.227,35.645,0
17516.251,17.578,21.484,33.203,31.738,58.594,0
17516.255,17.578,23.926,33.203,23.438,20.020,0
17516.258,5.859,21.484,27.832,20.996,14.648,0
17516.262,9.277,19.043,24.414,33.691,20.508,0
17516.266,22.461,22.461,25.391,24.414,52.734,0
17516.270,14.160,29.297,28.809,13.672,68.848,0
17516.274,15.137,31.250,26.367,19.531,81.055,0
17516.278,31.738,28.320,24.414,25.391,65.430,0
17516.282,27.832,28.809,24.902,37.109,-9.766,0
17516.286,11.230,30.762,29.297,27.344,6.836,0
17516.290,20.996,28.320,26.855,21.973,50.781,0
17516.294,31.738,25.879,18.555,25.391,56.641,0
17516.297,25.879,24.414,20.020,26.855,68.848,0
17516.301,25.879,24.902,25.879,27.344,40.527,0
17516.305,36.621,26.855,27.832,23.926,0.000,0
17516.309,32.715,25.391,24.902,27.344,2.930,0
17516.313,24.414,24.414,21.973,29.297,40.039,0
17516.317,23.926,29.297,23.926,31.738,55.664,0
17516.321,24.902,31.738,27.344,33.691,-8.789,0
17516.325,28.320,26.855,21.484,21.973,10.742,0
17516.329,24.902,21.484,16.602,20.996,0.000,0
17516.333,18.555,20.508,20.996,29.297,27.344,0
17516.337,13.184,23.926,24.902,25.879,59.082,0
17516.340,23.438,25.391,22.461,26.367,-6.836,0
17516.344,28.320,25.879,17.578,29.297,38.086,0
17516.348,32.715,25.879,16.602,29.785,63.477,0
17516.352,22.949,26.855,21.484,23.438,-5.859,0
17516.356,14.160,26.855,26.855,25.879,-22.949,0
17516.360,23.926,20.996,23.926,24.902,-22.949,0
17516.364,28.809,21.973,18.066,17.578,-15.625,0
17516.368,19.043,26.367,19.531,19.531,28.809,0
17516.372,16.113,27.344,23.438,20.508,76.172,0
17516.376,31.250,25.879,22.949,14.160,78.613,0
17516.380,37.109,24.414,19.531,21.484,57.617,0
17516.383,11.719,22.949,23.438,35.645,75.684,0
17516.387,3.418,23.438,29.785,30.762,66.895,0
17516.391,11.719,26.855,25.879,24.414,21.484,0
17516.395,19.531,27.344,19.531,24.902,14.648,0
17516.399,27.832,24.902,20.508,26.367,2.930,0
17516.403,17.090,27.344,28.320,27.832,-6.348,0
17516.407,24.902,27.832,28.809,21.973,46.387,0
17516.411,32.715,25.879,24.414,32.715,40.039,0
17516.415,23.438,23.438,20.020,38.086,14.648,0
17516.419,12.695,28.809,22.461,23.926,68.848,0
17516.422,22.949,31.738,26.855,35.156,74.707,0
17516.426,35.156,25.879,23.438,41.992,21.973,0
17516.430,41.992,26.367,19.531,23.438,27.344,0
17516.434,33.691,27.344,21.484,31.250,49.805,0
17516.438,14.648,24.414,28.320,33.203,-3.906,0
17516.442,24.414,22.461,25.879,37.598,-24.902,0
17516.446,36.133,28.320,22.461,35.156,47.852,0
17516.450,24.902,32.715,25.879,28.809,31.250,0
17516.454,13.184,28.809,30.762,32.227,17.090,0
17516.458,21.973,28.809,27.832,34.668,38.086,0
17516.462,33.203,30.273,21.973,39.551,5.371,0
17516.465,30.273,22.461,20.020,32.715,5.859,0
17516.469,12.695,22.461,25.391,23.926,-5.859,0
17516.473,16.113,28.320,24.902,29.297,5.371,0
17516.477,37.598,27.344,20.996,32.715,9.766,0
17516.481,34.668,26.855,22.461,33.203,-25.879,0
17516.485,19.531,27.832,26.855,38.086,-1.465,0
17516.489,17.578,28.809,27.832,27.344,36.133,0
17516.493,23.926,25.879,23.926,18.066,27.832,0
17516.497,34.668,23.926,20.996,19.043,24.902,0
17516.501,17.090,23.438,20.020,19.531,33.203,0
17516.505,4.395,20.996,25.391,28.809,-29.785,0
17516.508,28.809,21.484,26.367,28.809,-12.695,0
17516.512,24.414,23.438,24.414,29.785,74.707,0
17516.516,19.531,25.879,24.902,37.109,45.898,0
17516.520,26.855,30.273,30.273,48.828,4.883,0
17516.524,31.738,27.344,31.250,48.340,4.395,0
17516.528,44.434,23.438,25.391,34.180,32.227,0
17516.532,47.363,21.484,24.414,32.715,54.199,0
17516.536,25.391,24.414,29.297,30.762,33.203,0
17516.540,11.230,20.996,29.297,35.645,84.473,0
17516.544,37.109,16.113,26.855,37.598,77.148,0
17516.547,46.875,20.020,23.438,35.645,62.988,0
17516.551,18.066,25.879,24.902,44.922,110.840,0
17516.555,3.418,28.809,24.902,37.109,87.402,0
17516.559,11.719,28.320,20.020,29.785,31.250,0
17516.563,19.531,26.855,21.973,38.574,72.266,0
17516.567,14.160,31.250,25.879,36.133,70.312,0
17516.571,22.461,31.738,27.344,36.133,16.113,0
17516.575,21.484,20.996,25.391,36.621,52.246,0
17516.579,8.789,19.531,23.926,29.785,48.340,0
17516.583,11.230,27.344,25.391,19.043,0.977,0
17516.587,13.672,34.180,28.320,14.160,56.152,0
17516.590,20.508,33.691,27.344,23.438,11.230,0
17516.594,27.832,28.320,23.438,27.832,-10.742,0
17516.598,23.438,28.320,22.461,34.180,33.691,0
17516.602,10.742,33.203,26.367,26.855,1.465,0
17516.606,21.973,28.809,25.879,18.066,16.113,0
17516.610,32.715,23.926,23.926,29.785,6.836,0
17516.614,30.273,27.344,23.438,36.133,30.273,0
17516.618,32.227,33.203,25.879,35.645,77.637,0
17516.622,27.832,34.180,30.762,40.039,6.836,0
17516.626,41.992,32.715,27.344,42.480,-48.340,0
17516.630,52.246,33.203,20.020,33.203,-51.758,0
17516.633,36.133,33.203,20.996,20.996,27.344,0
17516.637,24.902,31.738,28.809,28.809,102.051,0
17516.641,18.555,28.320,26.855,50.293,90.820,0
17516.645,16.602,28.320,20.020,45.410,113.281,0
17516.649,15.137,29.297,19.043,25.879,108.887,0
17516.653,12.207,31.738,24.414,34.668,55.176,0
17516.657,15.137,31.250,27.832,32.227,39.062,0
17516.661,27.344,26.855,24.414,29.785,29.785,0
17516.665,45.898,25.879,20.508,33.691,59.570,0
17516.669,35.156,27.832,25.391,37.598,97.168,0
17516.672,14.648,27.344,30.762,51.270,39.062,0
17516.676,21.484,23.926,27.344,44.434,7.812,0
17516.680,33.203,24.902,20.996,22.461,48.340,0
17516.684,31.738,33.691,25.391,23.438,-4.395,0
17516.688,40.527,36.621,29.297,32.715,-30.762,0
17516.692,46.387,30.762,23.438,29.785,4.395,0
17516.696,39.551,27.344,17.578,37.109,62.500,0
17516.700,27.832,26.367,18.066,34.668,74.219,0
17516.704,7.812,30.762,28.320,26.855,-25.391,0
17516.708,21.484,31.738,30.762,33.691,-39.551,0
17516.712,36.621,24.414,24.414,34.180,52.734,0
17516.715,23.438,20.508,20.996,25.879,72.266,0
17516.719,15.137,30.273,27.832,28.809,27.344,0
17516.723,21.484,38.086,31.250,40.527,19.043,0
17516.727,34.180,31.738,28.809,48.340,3.906,0
17516.731,36.133,26.367,25.391,41.504,-0.977,0
17516.735,33.691,28.320,28.809,29.785,27.344,0
17516.739,28.809,25.391,31.250,32.227,-33.691,0
17516.743,31.738,20.020,23.926,45.898,-26.367,0
17516.747,38.086,17.578,21.973,33.203,24.902,0
17516.751,20.508,19.043,24.414,18.555,59.082,0
17516.755,3.906,21.973,27.832,28.809,16.113,0
17516.758,25.879,21.484,24.902,27.344,-22.949,0
17516.762,36.621,22.461,19.531,28.809,20.508,0
17516.766,20.508,22.461,24.902,37.109,-9.277,0
17516.770,13.184,25.391,30.762,38.086,-17.090,0
17516.774,19.531,21.484,26.855,25.879,-8.789,0
17516.778,31.738,19.043,24.414,22.461,-5.371,0
17516.782,23.926,23.438,20.508,21.973,26.367,0
17516.786,9.277,26.855,25.391,38.086,53.711,0
17516.790,11.719,28.320,27.832,38.086,24.902,0
17516.794,9.277,22.949,23.438,9.277,-19.043,0
17516.797,9.277,20.508,21.484,12.695,35.645,0
17516.801,-1.465,25.879,25.879,25.879,37.109,0
17516.805,-1.465,24.902,30.273,23.438,-15.137,0
17516.809,14.160,18.555,27.832,21.484,-16.113,0
17516.813,15.625,14.648,24.902,26.367,10.254,0
17516.817,16.113,18.066,24.414,26.367,19.043,0
17516.821,9.277,28.320,29.297,20.508,26.367,0
17516.825,11.719,30.762,28.809,22.949,15.625,0
17516.829,22.461,26.367,23.438,28.809,17.578,0
17516.833,17.090,24.414,20.996,34.180,103.516,0
17516.837,18.066,24.414,25.879,27.832,48.828,0
17516.840,20.996,23.926,26.855,17.090,9.277,0
17516.844,31.738,21.973,23.926,29.297,67.871,0
17516.848,48.340,18.555,21.484,27.344,64.453,0
17516.852,23.438,23.438,28.809,29.297,20.996,0
17516.856,10.742,25.879,33.691,37.598,-20.996,0
17516.860,21.973,19.531,25.879,23.926,34.180,0
17516.864,31.250,21.484,24.414,23.926,45.410,0
17516.868,31.250,26.367,28.809,24.902,41.504,0
17516.872,20.508,25.391,27.832,25.391,68.848,2
17516.876,16.113,22.949,25.391,25.391,77.148,0
17516.880,23.926,19.531,23.926,26.367,89.355,0
17516.883,22.949,16.113,30.762,30.762,23.438,0
17516.887,14.160,20.020,36.133,26.367,18.555,0
17516.891,19.531,25.879,31.250,27.344,36.621,0
17516.895,28.809,25.391,26.855,33.691,21.973,0
17516.899,33.203,26.855,28.809,38.574,45.410,0
17516.903,24.902,28.320,33.691,32.227,96.191,0
17516.907,19.531,26.855,31.738,27.344,72.754,0
17516.911,24.414,24.902,25.879,31.250,34.668,0
17516.915,20.020,20.996,22.949,25.879,55.176,0
17516.919,9.766,21.484,25.879,24.902,55.176,0
17516.922,17.090,20.996,27.344,28.809,33.691,0
17516.926,25.391,22.461,23.438,35.156,41.016,0
17516.930,29.297,25.391,20.508,34.180,52.246,0
17516.934,20.508,27.832,25.391,32.227,67.871,0
17516.938,11.719,29.785,27.832,24.902,77.637,0
17516.942,22.461,28.320,23.926,25.879,62.012,0
17516.946,26.855,27.344,20.996,31.738,83.496,0
17516.950,22.949,26.855,22.461,27.832,90.332,0
17516.954,17.578,29.785,27.344,25.879,17.090,0
17516.958,22.461,30.762,25.391,26.367,25.391,0
17516.962,22.461,23.926,19.531,33.203,55.176,0
17516.965,32.715,24.414,18.555,40.527,109.863,0
17516.969,31.738,34.668,24.902,28.809,98.145,0
17516.973,22.461,37.109,24.902,29.785,0.488,0
17516.977,29.785,35.156,17.578,31.250,-3.418,0
17516.981,31.738,30.762,15.137,26.855,9.277,0
17516.985,19.531,31.738,21.973,24.414,-13.672,0
17516.989,16.602,34.668,22.461,18.555,20.508,0
17516.993,26.855,31.250,21.484,23.926,94.238,0
17516.997,31.250,30.273,20.996,34.180,62.988,0
17517.001,22.461,33.203,26.367,33.203,-16.113,0
17517.005,27.832,34.668,33.203,36.621,-43.945,0
17517.008,40.039,33.203,26.367,41.016,-1.953,0
17517.012,27.344,32.227,16.602,25.391,17.090,0
17517.016,23.438,32.227,15.137,20.508,46.875,0
17517.020,15.137,36.133,21.484,22.949,37.598,0
17517.024,20.020,36.133,26.367,15.625,14.160,0
17517.028,39.062,32.227,20.020,8.301,-5.371,0
17517.032,28.320,31.738,15.137,20.020,17.090,0
17517.036,10.254,37.109,22.461,29.785,64.941,0
17517.040,15.625,38.086,26.367,30.273,49.805,0
17517.044,31.738,29.785,25.879,36.621,24.414,0
17517.047,36.133,26.367,24.414,45.410,14.160,0
17517.051,20.996,34.668,24.902,35.156,59.570,0
17517.055,14.648,38.086,27.344,26.855,24.902,0
17517.059,25.879,35.156,23.438,32.227,0.000,0
17517.063,36.133,34.668,19.531,24.414,62.988,0
17517.067,43.457,33.203,22.949,23.438,75.684,0
17517.071,22.461,32.715,26.855,27.832,40.527,0
17517.075,9.277,31.738,23.926,27.344,16.113,0
17517.079,26.367,28.809,16.113,33.203,45.410,0
17517.083,26.367,27.832,15.137,28.320,91.309,0
17517.087,18.066,30.762,22.949,18.555,43.457,0
17517.090,31.738,32.227,22.461,24.902,-18.555,0
17517.094,35.645,30.273,18.066,27.832,28.809,0
17517.098,30.762,28.320,16.113,22.949,97.168,0
17517.102,16.602,32.227,18.555,31.738,62.012,0
17517.106,22.461,30.762,22.461,37.598,-12.207,0
17517.110,31.738,27.832,18.555,20.020,36.133,0
17517.114,20.508,28.320,15.625,13.672,38.086,0
17517.118,18.555,30.273,21.973,19.531,-1.953,0
17517.122,18.555,32.227,25.879,35.645,69.824,0
17517.126,23.438,28.809,25.879,43.457,68.359,0
17517.130,29.785,22.949,23.926,27.344,42.969,0
17517.133,28.320,22.949,23.438,17.090,17.090,0
17517.137,36.133,26.367,29.297,19.043,20.020,0
17517.141,40.039,29.297,28.320,34.180,36.621,0
17517.145,14.160,28.809,22.949,38.574,5.859,0
17517.149,19.043,30.762,24.902,38.574,27.344,0
17517.153,28.809,35.156,28.320,36.621,19.043,0
17517.157,23.438,33.203,27.832,34.668,12.695,0
17517.161,17.578,27.344,26.367,22.949,36.621,0
17517.165,23.926,23.926,25.879,19.043,19.531,0
17517.169,20.020,29.297,30.762,28.809,1.465,0
17517.172,16.113,31.738,32.227,26.855,0.977,0
17517.176,28.320,30.273,24.414,26.855,0.000,0
17517.180,37.109,29.297,20.508,25.391,-17.090,0
17517.184,31.250,29.297,23.926,18.555,-35.156,0
17517.188,27.344,30.273,27.832,20.996,-17.578,0
17517.192,37.109,26.855,26.367,30.273,26.855,0
17517.196,33.691,25.391,22.949,27.832,76.172,0
17517.200,23.438,28.320,24.414,19.043,73.730,0
17517.204,20.508,33.203,29.785,25.879,2.930,0
17517.208,23.926,28.809,29.297,26.855,-1.465,0
17517.212,41.504,20.020,24.414,34.180,41.992,0
17517.215,47.852,21.973,24.414,32.227,37.598,0
17517.219,24.414,31.250,29.785,28.809,-34.180,0
17517.223,13.672,34.180,32.227,38.086,22.461,0
17517.227,26.855,30.273,32.227,36.133,89.844,0
17517.231,31.738,24.414,29.297,39.551,70.801,0
17517.235,20.020,25.391,30.273,34.180,50.293,0
17517.239,28.809,28.809,30.762,35.156,33.203,0
17517.243,34.668,28.809,28.809,55.664,18.555,0
17517.247,23.926,28.320,29.785,55.664,71.289,0
17517.251,30.273,29.785,32.227,33.691,129.883,0
17517.255,33.691,31.250,35.156,35.645,66.895,0
17517.258,29.785,28.809,34.180,38.086,8.789,0
17517.262,28.320,26.367,28.809,31.738,14.160,0
17517.266,27.344,28.320,28.809,38.086,3.418,0
17517.270,28.320,35.645,35.156,37.109,20.020,0
17517.274,38.086,33.691,30.762,26.367,26.855,0
17517.278,31.738,21.973,22.949,14.160,59.570,0
17517.282,28.320,19.043,21.973,6.836,68.359,0
17517.286,18.066,28.809,27.832,16.113,27.344,0
17517.290,-2.930,29.297,31.250,28.320,30.273,0
17517.294,0.977,25.879,24.902,23.438,-5.859,0
17517.297,15.625,25.879,21.484,26.855,29.785,0
17517.301,19.043,27.832,25.879,40.039,71.289,0
17517.305,20.508,31.738,29.785,35.156,18.066,0
17517.309,28.809,27.832,27.344,23.438,-19.043,0
17517.313,32.227,22.461,22.949,27.832,-2.441,0
17517.317,19.043,26.367,27.832,33.691,42.969,0
17517.321,11.719,29.785,32.715,41.016,30.762,0
17517.325,20.996,26.367,30.273,44.434,28.320,0
17517.329,29.297,24.414,26.367,47.852,79.590,0
17517.333,28.320,30.273,24.902,39.551,75.684,0
17517.337,33.203,34.668,30.273,30.273,35.156,0
17517.340,33.203,32.227,30.762,33.691,60.059,0
17517.344,30.273,33.691,29.297,37.109,58.594,0
17517.348,36.621,33.691,31.250,38.086,42.969,0
17517.352,28.809,34.668,33.203,33.691,61.523,0
17517.356,17.090,32.715,30.762,45.410,31.250,0
17517.360,20.020,29.785,24.902,38.574,24.414,0
17517.364,42.969,25.391,18.066,23.438,35.156,0
17517.368,38.086,29.297,20.996,32.715,41.504,0
17517.372,22.949,35.645,30.762,39.062,24.414,0
17517.376,20.508,32.715,34.668,24.902,0.977,0
17517.380,16.113,25.391,26.855,16.602,62.988,0
17517.383,18.555,25.391,24.902,28.320,56.152,0
17517.387,8.789,31.738,35.156,28.320,37.109,0
17517.391,18.555,32.227,33.691,27.832,51.758,0
17517.395,22.949,24.902,22.461,26.855,73.730,0
17517.399,22.949,21.973,21.484,27.344,94.238,0
17517.403,22.949,31.250,33.691,31.738,45.898,0
17517.407,21.484,32.227,31.738,23.926,38.086,0
17517.411,25.879,20.996,21.973,27.344,22.949,0
17517.415,26.855,20.020,21.484,23.438,32.227,0
17517.419,21.973,27.832,29.297,17.090,46.387,0
17517.422,27.344,29.785,34.668,27.832,28.809,0
17517.426,33.203,29.297,31.250,46.875,70.801,2
17517.430,28.809,27.832,23.926,40.039,42.480,0
17517.434,23.926,29.297,26.367,26.855,26.367,0
17517.438,9.277,29.785,30.762,30.273,63.965,0
17517.442,15.137,28.809,26.855,39.062,82.520,0
17517.446,35.156,30.273,21.484,36.133,55.664,0
17517.450,34.180,28.320,20.020,9.766,18.555,0
17517.454,24.414,27.832,22.949,9.766,44.922,0
17517.458,29.297,31.250,21.973,28.320,28.809,0
17517.462,36.133,30.762,19.531,22.461,11.230,0
17517.465,35.645,30.762,20.996,20.996,20.020,0
17517.469,18.555,33.691,27.832,43.457,-18.066,0
17517.473,16.602,33.203,32.715,44.922,-20.996,0
17517.477,31.738,32.227,30.273,36.621,33.691,0
17517.481,25.879,30.273,25.879,42.480,44.434,0
17517.485,24.902,33.203,32.715,34.668,75.195,0
17517.489,37.109,32.227,33.691,26.367,51.270,0
17517.493,29.297,28.320,27.344,28.809,58.594,0
17517.497,33.203,28.320,26.855,27.344,84.961,0
17517.501,22.461,22.949,31.250,22.461,59.570,0
17517.505,11.719,27.344,32.227,25.879,2.441,0
17517.508,31.250,31.250,29.785,33.691,-12.695,0
17517.512,42.480,29.297,23.926,35.645,5.859,0
17517.516,27.832,31.250,22.461,30.273,56.641,0
17517.520,24.414,36.133,28.320,35.156,18.066,0
17517.524,28.320,39.062,26.855,33.691,-12.695,0
17517.528,35.156,35.156,27.344,25.391,14.160,0
17517.532,38.574,34.668,27.344,35.645,4.395,0
17517.536,23.926,38.574,26.855,39.551,-15.137,0
17517.540,20.508,36.621,28.320,28.320,-18.066,0
17517.544,31.250,33.203,26.367,27.344,-2.930,0
17517.547,38.574,32.715,21.484,24.902,6.348,0
17517.551,20.996,37.109,26.855,21.484,27.344,0
17517.555,8.789,36.133,33.203,23.438,34.180,0
17517.559,20.508,33.203,28.809,28.320,6.348,0
17517.563,28.320,29.785,23.926,36.621,1.465,0
17517.567,20.508,24.414,25.879,30.762,20.508,0
17517.571,11.230,25.879,30.273,18.555,54.199,0
17517.575,13.184,24.902,28.320,9.277,9.277,0
17517.579,17.578,20.508,22.461,6.348,11.230,0
17517.583,12.695,19.531,22.461,22.949,45.898,0
17517.587,5.859,22.461,25.879,32.715,-12.207,0
17517.590,15.137,24.902,25.879,27.344,39.062,0
17517.594,15.625,24.414,24.902,20.020,54.199,0
17517.598,10.742,27.344,24.414,18.555,-26.855,0
17517.602,9.766,28.809,28.320,24.902,1.465,0
17517.606,15.137,26.855,30.273,27.832,70.801,0
17517.610,16.602,28.320,27.832,22.949,24.902,0
17517.614,16.113,27.832,20.996,20.508,-10.254,0
17517.618,20.020,28.320,24.414,22.461,-8.301,0
17517.622,15.625,25.879,31.250,24.414,15.625,0
17517.626,25.879,27.832,30.762,28.320,50.293,0
17517.630,34.180,34.180,25.879,34.180,73.242,0
17517.633,31.738,33.691,22.461,26.855,63.477,0
17517.637,28.320,35.156,27.344,27.344,9.766,0
17517.641,13.672,33.691,28.809,37.598,-0.977,0
17517.645,15.625,29.785,27.344,40.039,42.969,0
17517.649,30.762,29.297,29.297,37.598,74.707,0
17517.653,18.066,32.227,35.156,43.457,44.922,0
17517.657,13.184,31.738,33.203,44.922,78.613,0
17517.661,27.344,24.902,28.809,46.875,77.148,0
17517.665,32.227,22.949,30.273,45.410,21.484,0
17517.669,30.762,24.414,32.715,38.086,-10.254,0
17517.672,19.531,20.020,32.715,35.156,15.137,0
17517.676,20.508,20.996,31.250,25.879,52.734,0
17517.680,34.180,26.855,28.809,27.344,57.617,0
17517.684,29.785,33.203,29.785,28.320,62.988,0
17517.688,24.414,31.738,29.297,29.785,7.812,0
17517.692,29.297,28.809,28.320,37.109,37.109,0
17517.696,43.457,31.250,26.367,35.156,59.082,0
17517.700,39.551,31.250,25.879,27.832,17.578,0
17517.704,39.551,30.273,30.762,21.484,18.066,0
17517.708,35.156,25.879,30.273,17.090,36.621,0
17517.712,17.578,24.902,23.438,18.555,44.922,0
17517.715,29.297,28.320,21.973,22.461,35.645,0
17517.719,26.855,32.227,28.320,21.973,28.320,0
17517.723,19.531,33.203,30.762,22.461,40.527,0
17517.727,28.809,26.855,24.902,30.762,48.340,0
17517.731,31.738,24.414,20.996,26.855,-2.441,0
17517.735,27.344,27.344,27.344,22.461,6.348,0
17517.739,29.785,25.391,30.762,24.902,-12.695,0
17517.743,20.508,21.973,27.344,24.902,-63.477,0
17517.747,4.883,22.949,22.461,24.902,2.441,0
17517.751,8.789,28.320,22.461,25.879,72.754,0
17517.755,4.395,28.320,24.902,26.367,41.992,0
17517.758,5.859,27.832,25.391,28.809,22.949,0
17517.762,23.438,32.715,25.391,26.855,39.062,0
17517.766,22.949,29.785,25.391,19.043,39.062,0
17517.770,16.113,27.344,29.297,13.672,14.160,0
17517.774,14.648,27.832,27.832,10.742,29.785,0
17517.778,17.090,24.902,19.531,12.207,56.641,0
17517.782,14.160,21.484,22.461,6.836,47.363,0
17517.786,-4.395,25.879,35.645,-4.883,45.410,0
17517.790,-16.602,25.879,32.715,-20.508,14.160,0
17517.794,-9.277,20.508,29.297,-24.902,18.555,0
17517.797,-18.066,22.461,31.738,-19.531,85.449,0
17517.801,-50.293,29.297,28.320,-41.016,62.500,0
17517.805,-51.270,36.133,33.203,-51.758,-26.855,0
17517.809,-47.852,28.320,38.086,-48.828,-16.113,0
17517.813,-54.199,18.066,29.785,-69.824,55.664,0
17517.817,-77.148,23.926,31.738,-80.078,62.988,0
17517.821,-106.445,27.832,36.133,-88.867,12.695,0
17517.825,-113.770,18.555,28.320,-103.027,38.086,0
17517.829,-106.445,13.672,26.855,-111.816,67.871,0
17517.833,-106.934,22.461,25.391,-116.211,-23.438,0
17517.837,-134.277,27.344,32.227,-125.000,-63.477,0
17517.840,-142.090,20.020,34.180,-133.301,32.227,0
17517.844,-127.441,14.648,28.809,-130.859,36.621,0
17517.848,-121.582,11.719,35.156,-129.883,2.441,0
17517.852,-138.672,11.230,48.340,-128.906,24.902,0
17517.856,-125.488,12.695,48.828,-118.652,8.789,0
17517.860,-115.723,10.742,42.969,-110.840,17.090,0
17517.864,-122.559,8.789,43.457,-103.027,18.555,0
17517.868,-104.004,10.254,45.898,-93.262,22.461,0
17517.872,-87.891,9.766,52.734,-85.938,21.484,0
17517.876,-70.312,8.789,47.852,-76.660,5.859,0
17517.880,-44.434,13.184,34.668,-57.617,3.418,0
17517.883,-31.250,19.531,37.598,-43.457,31.250,0
17517.887,-35.645,21.973,48.340,-43.457,68.359,0
17517.891,-13.672,19.043,50.781,-27.832,30.762,0
17517.895,-5.859,16.602,44.434,-7.812,19.043,0
17517.899,-12.695,16.113,41.016,-0.488,85.449,0
17517.903,1.953,22.949,45.410,19.531,49.805,0
17517.907,22.949,26.367,42.969,45.898,-18.066,0
17517.911,52.246,21.484,33.203,41.992,59.082,0
17517.915,54.688,23.926,24.902,41.016,71.777,0
17517.919,40.527,23.926,29.297,65.918,-5.859,0
17517.922,53.711,20.020,37.598,81.055,26.855,0
17517.926,74.707,21.973,35.645,83.984,19.531,0
17517.930,86.426,21.484,24.902,87.402,8.789,0
17517.934,83.496,24.414,26.367,93.750,33.203,0
17517.938,90.332,27.832,28.809,104.492,19.531,0
17517.942,95.215,24.902,20.020,106.934,15.625,0
17517.946,93.750,24.414,13.672,107.910,69.336,0
17517.950,98.633,25.391,14.648,105.469,104.980,0
17517.954,91.309,26.367,20.508,99.121,67.383,0
17517.958,88.867,27.832,17.090,96.680,28.320,0
17517.962,98.145,27.832,10.742,103.027,10.742,0
17517.965,113.281,29.785,8.789,99.609,-32.227,0
17517.969,90.332,31.250,12.207,95.215,2.930,0
17517.973,78.125,29.297,16.113,101.074,17.090,0
17517.977,96.680,30.273,11.230,97.168,33.691,0
17517.981,99.609,29.785,3.906,101.562,84.473,0
17517.985,92.285,33.203,9.766,94.238,40.039,0
17517.989,90.820,37.598,11.230,79.102,-29.785,0
17517.993,93.262,34.668,7.324,82.520,-3.418,0
17517.997,100.098,32.227,6.836,90.820,45.898,0
17518.001,97.168,33.691,11.230,84.961,20.996,0
17518.005,77.637,36.621,18.066,80.078,3.418,0
17518.008,69.336,34.668,16.113,81.543,-52.246,0
17518.012,81.543,33.203,13.672,88.379,-23.438,2
17518.016,83.008,34.180,14.648,91.797,35.645,0
17518.020,66.895,29.785,17.578,76.172,29.785,0
17518.024,66.406,26.855,15.625,73.242,4.883,0
17518.028,66.895,29.297,11.719,71.289,6.348,0
17518.032,64.941,31.250,11.230,62.012,3.418,0
17518.036,58.105,36.133,16.602,71.777,25.391,0
17518.040,48.340,36.621,17.578,69.824,82.031,0
17518.044,55.176,33.691,15.625,67.871,74.707,0
17518.047,65.918,31.738,13.184,73.730,21.484,0
17518.051,58.105,29.785,14.648,63.477,48.828,0
17518.055,54.199,26.855,17.090,59.082,51.758,0
17518.059,55.176,27.344,14.648,64.453,0.000,0
17518.063,64.453,31.738,15.137,65.430,26.367,0
17518.067,67.871,32.227,16.602,61.035,53.223,0
17518.071,59.082,32.715,19.043,63.477,36.133,0
17518.075,68.359,36.621,19.531,73.730,5.371,0
17518.079,81.055,33.203,18.555,66.406,13.184,0
17518.083,64.453,27.832,18.066,52.734,5.371,0
17518.087,42.480,30.273,21.484,55.664,-26.855,0
17518.090,46.875,26.855,23.438,64.453,27.832,0
17518.094,60.547,20.508,21.973,59.570,58.105,0
17518.098,64.453,21.973,18.555,54.688,37.109,0
17518.102,37.598,26.855,22.949,52.246,44.922,0
17518.106,36.621,23.438,24.414,58.105,50.293,0
17518.110,48.828,20.508,20.508,62.988,20.020,0
17518.114,45.410,25.879,22.949,60.059,-14.648,0
17518.118,40.039,33.691,28.809,60.059,-20.020,0
17518.122,35.156,31.250,32.715,50.781,-18.066,0
17518.126,41.016,27.832,30.273,52.246,-10.254,0
17518.130,60.059,28.320,26.855,57.617,43.457,0
17518.133,66.406,32.715,28.809,50.781,41.992,0
17518.137,47.852,36.621,35.645,52.734,54.199,0
17518.141,51.270,33.691,31.738,59.570,66.406,0
17518.145,65.918,29.785,23.438,54.688,33.203,0
17518.149,60.547,28.320,22.949,43.457,60.547,0
17518.153,48.828,32.715,26.855,41.016,40.527,0
17518.157,46.875,36.621,27.344,45.898,31.738,0
17518.161,52.734,32.715,22.461,53.223,45.898,0
17518.165,42.480,29.785,20.508,49.805,37.109,0
17518.169,29.785,34.180,28.320,40.527,-0.488,0
17518.172,36.133,33.203,26.855,43.457,15.137,0
17518.176,38.574,26.367,17.578,40.039,43.945,0
17518.180,32.227,21.484,17.578,36.621,11.719,0
17518.184,20.996,23.438,23.438,39.062,33.203,0
17518.188,19.531,30.273,27.344,37.598,86.914,0
17518.192,30.762,32.227,24.902,35.156,82.031,0
17518.196,39.062,30.273,19.043,38.086,19.531,0
17518.200,40.039,28.320,21.973,43.945,3.906,0
17518.204,31.250,32.227,29.785,39.062,-21.484,0
17518.208,28.809,33.691,28.320,40.039,-34.180,0
17518.212,41.992,29.785,24.414,38.086,-15.137,0
17518.215,42.480,24.414,23.438,32.227,9.277,0
17518.219,23.438,25.879,30.273,29.785,93.750,0
17518.223,29.297,31.738,30.273,38.086,90.332,0
17518.227,54.199,33.691,20.996,44.434,19.043,0
17518.231,41.992,29.297,17.578,26.367,44.434,0
17518.235,20.020,30.273,25.879,23.438,62.012,0
17518.239,16.602,33.691,30.762,33.691,4.883,0
17518.243,15.137,27.832,27.344,35.156,11.230,0
17518.247,20.508,24.902,20.508,30.273,9.277,0
17518.251,19.531,30.273,18.555,22.461,-33.203,0
17518.255,15.137,32.227,23.438,20.508,9.766,0
17518.258,19.043,29.785,24.414,30.273,72.266,0
17518.262,29.297,23.438,22.461,33.203,61.523,0
17518.266,30.273,24.902,21.973,29.785,84.473,0
17518.270,15.137,34.180,25.879,31.250,67.871,0
17518.274,24.902,33.691,25.879,29.297,21.484,0
17518.278,28.320,29.297,20.508,20.996,20.020,0
17518.282,20.996,26.855,18.066,19.043,18.555,0
17518.286,12.207,29.297,22.461,27.344,50.781,0
17518.290,14.648,29.785,23.438,32.227,27.344,0
17518.294,25.879,26.367,19.531,29.785,27.832,0
17518.297,27.344,25.879,19.043,32.227,46.387,0
17518.301,16.602,25.391,26.367,41.016,48.340,0
17518.305,14.160,24.902,28.809,34.668,14.160,0
17518.309,29.297,23.926,23.438,26.367,-23.926,0
17518.313,34.180,24.414,22.461,28.809,13.672,0
17518.317,35.645,30.762,26.367,21.973,41.992,0
17518.321,28.809,32.227,26.367,14.160,19.043,0
17518.325,27.832,29.785,23.438,25.391,-1.465,0
17518.329,29.297,26.367,21.484,35.156,46.875,0
17518.333,20.996,22.949,20.020,35.645,46.387,0
17518.337,9.766,23.926,21.973,32.227,-0.488,0
17518.340,19.043,23.926,21.973,35.156,42.969,0
17518.344,38.086,21.973,22.461,36.621,59.570,0
17518.348,31.738,21.973,23.926,33.203,-6.348,0
17518.352,22.461,23.438,24.414,31.738,42.480,0
17518.356,20.996,24.414,23.438,28.809,119.629,0
17518.360,25.391,25.391,24.902,28.320,92.773,0
17518.364,29.785,24.902,25.879,32.715,50.293,0
17518.368,27.832,25.391,25.391,34.180,19.043,0
17518.372,16.602,23.438,23.926,33.691,66.895,0
17518.376,23.926,22.949,23.926,41.016,102.539,0
17518.380,29.785,18.066,25.391,36.133,68.359,0
17518.383,25.391,11.230,29.297,29.297,26.855,0
17518.387,19.531,15.137,33.691,29.785,44.922,0
17518.391,14.648,20.996,29.785,28.809,104.004,0
17518.395,25.879,22.461,28.809,37.598,62.988,0
17518.399,29.785,20.996,32.227,33.691,4.395,0
17518.403,38.086,23.438,30.273,23.438,28.809,0
17518.407,38.574,24.414,27.344,32.715,20.508,0
17518.411,20.996,24.902,26.367,39.551,14.648,0
17518.415,22.461,25.879,29.785,39.062,26.855,0
17518.419,28.809,23.438,30.762,41.016,22.949,0
17518.422,27.832,22.461,32.227,37.109,29.785,0
17518.426,36.621,27.344,34.668,40.039,15.137,0
17518.430,44.922,28.320,28.809,31.738,-0.977,0
17518.434,33.203,29.297,30.273,33.203,2.930,0
17518.438,28.320,31.738,32.227,44.922,-19.531,0
17518.442,34.180,30.762,27.832,36.621,-17.090,0
17518.446,29.785,28.320,25.879,27.344,47.852,0
17518.450,35.645,27.344,23.926,27.832,62.988,0
17518.454,38.086,27.832,25.879,26.367,74.219,0
17518.458,19.043,27.832,26.367,25.879,44.922,0
17518.462,24.902,27.832,22.949,29.785,28.809,0
17518.465,40.039,23.926,24.414,36.621,15.625,0
17518.469,23.926,22.461,29.785,36.621,-15.137,0
17518.473,22.461,24.414,27.344,37.109,22.461,0
17518.477,40.527,29.297,25.391,33.203,19.043,0
17518.481,45.410,27.832,23.438,28.320,15.137,0
17518.485,35.645,25.391,25.879,29.785,65.918,0
17518.489,19.531,26.855,30.762,34.180,57.129,0
17518.493,7.324,25.879,30.273,39.551,3.906,0
17518.497,15.625,25.391,27.344,51.270,51.270,0
17518.501,21.484,26.367,32.227,44.922,61.035,0
17518.505,19.531,27.344,36.621,29.785,-8.301,0
17518.508,26.855,28.809,32.715,38.574,-0.977,0
17518.512,32.715,30.273,27.832,39.551,31.738,0
17518.516,39.062,33.203,28.809,32.227,53.711,1
17518.520,33.691,36.621,34.180,32.715,59.082,0
17518.524,34.180,37.598,32.227,40.039,14.648,0
17518.528,30.273,35.645,26.855,40.039,22.461,0
17518.532,10.742,33.691,27.832,33.691,57.617,0
17518.536,6.836,34.180,32.715,31.738,12.207,0
17518.540,11.719,31.250,30.273,24.414,-13.672,0
17518.544,24.414,27.832,28.320,21.484,-3.906,0
17518.547,32.227,27.832,23.926,25.879,36.133,0
17518.551,29.297,30.762,21.484,22.949,45.410,0
17518.555,28.320,29.297,26.367,29.297,-3.418,0
17518.559,19.043,26.367,28.809,33.691,5.859,0
17518.563,24.902,26.855,27.344,32.715,31.738,0
17518.567,30.762,27.344,28.320,28.809,27.344,0
17518.571,20.996,29.297,31.250,21.973,-7.324,0
17518.575,12.695,26.367,27.344,27.832,15.625,0
17518.579,18.066,22.949,22.949,42.480,79.590,0
17518.583,21.973,25.391,24.414,35.645,22.461,0
17518.587,14.648,27.344,29.297,22.949,0.000,0
17518.590,18.555,24.902,27.344,28.809,16.602,0
17518.594,24.902,23.926,27.832,33.203,-9.277,0
17518.598,33.203,28.320,26.855,36.133,-15.137,0
17518.602,21.484,29.785,27.832,32.715,-27.344,0
17518.606,7.324,27.344,32.227,19.531,58.594,0
17518.610,12.207,25.879,25.879,14.648,97.656,0
17518.614,17.578,24.902,20.020,20.508,76.660,0
17518.618,17.090,26.367,24.902,20.020,44.922,0
17518.622,11.719,25.879,27.832,17.578,-13.672,0
17518.626,9.277,20.508,26.367,26.367,20.508,0
17518.630,23.926,20.996,25.879,24.902,21.484,0
17518.633,24.902,27.832,26.367,14.160,19.531,0
17518.637,18.555,28.809,30.273,21.973,1.953,0
17518.641,25.391,27.832,31.250,35.645,42.969,0
17518.645,25.879,29.297,28.809,34.668,41.016,0
17518.649,7.812,26.367,24.902,18.066,38.574,0
17518.653,2.930,25.879,26.855,10.254,38.574,0
17518.657,15.137,25.391,27.344,25.391,-33.691,0
17518.661,18.066,22.461,22.949,24.414,26.855,0
17518.665,23.438,19.043,27.832,17.578,107.422,0
17518.669,24.414,20.020,33.203,20.508,103.516,0
17518.672,19.043,24.414,28.809,26.855,39.062,0
17518.676,19.043,26.367,26.367,31.738,-15.137,0
17518.680,15.625,25.391,22.461,27.344,-20.020,0
17518.684,11.719,26.855,23.926,20.020,42.480,0
17518.688,17.578,25.391,30.762,16.602,50.781,0
17518.692,22.461,21.973,29.297,32.715,-16.113,0
17518.696,24.902,20.996,25.391,31.738,13.672,0
17518.700,21.973,22.461,24.414,15.625,10.254,0
17518.704,16.602,23.438,30.762,27.832,18.066,0
17518.708,24.902,17.578,31.738,41.992,33.203,0
17518.712,31.738,15.625,27.344,36.621,32.715,0
17518.715,28.809,24.414,24.414,31.250,59.570,0
17518.719,14.160,31.738,29.297,26.367,39.062,0
17518.723,7.324,30.762,29.297,20.020,37.598,0
17518.727,20.996,28.320,22.949,25.391,51.758,0
17518.731,34.180,29.785,22.949,36.133,66.895,0
17518.735,20.996,34.180,29.297,28.320,41.504,0
17518.739,12.207,32.715,29.785,21.484,11.719,0
17518.743,17.090,24.414,25.879,29.297,89.844,0
17518.747,26.367,24.902,21.484,34.668,117.676,0
17518.751,27.344,31.250,23.438,28.320,69.336,0
17518.755,16.602,34.180,26.855,17.578,-0.977,0
17518.758,17.578,34.668,24.902,25.391,-15.137,0
17518.762,22.949,32.227,21.484,30.762,17.090,0
17518.766,23.438,29.785,18.066,22.461,19.043,0
17518.770,22.461,28.809,22.949,23.438,18.555,0
17518.774,26.367,25.391,23.926,31.738,49.805,0
17518.778,31.738,20.996,22.461,29.297,42.969,0
17518.782,26.367,21.973,21.973,30.762,64.453,0
17518.786,4.395,22.461,25.391,38.086,54.688,0
17518.790,13.184,18.555,24.414,26.855,-0.977,0
17518.794,30.273,20.996,19.531,17.090,27.344,0
17518.797,25.391,23.438,18.555,17.090,40.527,0
17518.801,26.855,25.391,22.949,22.949,24.902,0
17518.805,25.879,28.320,26.855,26.855,65.918,0
17518.809,20.996,27.832,27.344,24.902,51.758,0
17518.813,28.320,23.926,24.902,27.832,22.949,0
17518.817,34.668,25.879,24.414,26.367,30.762,0
17518.821,23.438,25.879,27.344,28.809,-26.855,0
17518.825,18.555,20.996,27.832,37.598,-20.508,0
17518.829,30.273,20.508,23.926,28.320,68.359,0
17518.833,41.016,26.367,22.461,19.531,99.609,0
17518.837,25.879,31.250,26.855,22.949,81.543,0
17518.840,9.766,30.273,27.344,24.414,45.410,0
17518.844,29.297,32.227,27.832,33.203,41.992,0
17518.848,46.387,32.715,27.832,36.133,59.082,0
17518.852,30.273,31.738,27.344,25.879,18.066,0
17518.856,24.414,30.762,29.785,25.391,4.883,0
17518.860,22.461,29.297,26.855,26.855,-7.324,0
17518.864,20.996,29.297,23.438,36.621,-16.602,0
17518.868,29.785,28.320,28.809,31.738,22.461,0
17518.872,19.531,22.949,32.715,23.926,27.344,0
17518.876,19.531,20.508,31.738,37.109,-17.578,0
17518.880,29.785,24.902,28.320,41.016,-20.020,0
17518.883,37.109,28.320,25.391,35.156,33.691,0
17518.887,30.273,29.785,26.855,33.691,24.414,0
17518.891,15.137,26.367,29.785,34.180,52.246,0
17518.895,26.367,24.902,32.227,38.086,65.430,0
17518.899,40.527,26.367,31.250,31.738,34.668,0
17518.903,30.273,29.297,33.691,27.832,47.363,0
17518.907,23.438,27.832,31.738,34.668,14.160,0
17518.911,31.738,24.414,27.832,32.227,76.660,0
17518.915,27.832,24.902,27.832,27.344,100.586,0
17518.919,22.461,28.809,26.855,20.508,62.500,0
17518.922,25.391,31.250,26.855,30.273,35.156,0
17518.926,26.855,28.809,28.809,40.527,23.926,0
17518.930,22.461,26.855,27.832,32.227,71.777,0
17518.934,20.996,27.832,22.949,25.391,32.227,0
17518.938,21.484,31.250,22.461,24.414,36.133,0
17518.942,26.855,29.785,23.926,29.297,46.875,0
17518.946,33.203,26.367,21.484,37.109,18.555,0
17518.950,23.438,28.809,26.367,34.180,9.277,0
17518.954,13.184,28.809,32.227,37.598,17.578,0
17518.958,21.973,25.391,29.785,45.410,-0.977,0
17518.962,31.738,21.973,24.902,32.715,-2.441,0
17518.965,21.484,19.531,24.414,23.438,67.383,0
17518.969,11.230,26.855,29.785,25.879,32.715,0
17518.973,14.160,31.738,29.297,24.414,27.344,0
17518.977,33.203,32.227,25.391,29.297,53.711,0
17518.981,38.574,33.203,24.902,28.320,38.574,0
17518.985,29.297,34.668,26.855,15.625,33.691,0
17518.989,31.250,32.715,30.273,22.461,16.113,0
17518.993,15.625,27.832,27.832,27.344,17.578,0
17518.997,7.324,28.809,19.531,25.879,57.129,0
17519.001,19.531,31.250,21.484,23.926,55.176,0
17519.005,26.367,29.785,24.414,15.137,20.996,0
17519.008,24.414,29.297,16.602,18.066,22.461,0
17519.012,20.996,26.855,19.043,20.508,48.340,0
17519.016,19.531,24.902,27.344,32.715,64.453,0
17519.020,7.812,27.832,26.855,32.715,42.969,0
17519.024,9.766,29.785,26.855,28.809,50.293,0
17519.028,24.414,29.785,28.809,33.203,24.414,0
17519.032,25.391,27.344,25.879,25.879,-16.113,0
17519.036,14.648,31.250,25.391,29.297,6.348,0
17519.040,15.137,32.227,25.879,37.598,-13.672,0
17519.044,25.391,30.273,24.414,28.809,-20.020,0
17519.047,33.203,33.691,25.391,26.855,19.043,0
17519.051,27.832,32.715,26.367,38.086,11.719,0
17519.055,16.602,28.809,24.902,35.156,20.996,0
17519.059,22.949,25.391,23.926,29.297,33.203,0
17519.063,35.156,23.926,21.973,38.574,41.992,0
17519.067,36.133,29.297,21.973,22.949,-3.418,0
17519.071,26.367,31.738,22.461,15.137,-28.320,0
17519.075,23.926,32.227,21.484,27.832,22.461,0
17519.079,29.297,32.227,22.461,25.879,31.250,0
17519.083,34.180,30.762,22.461,25.391,41.992,0
17519.087,27.344,30.273,24.902,31.738,64.453,0
17519.090,21.973,26.855,23.438,32.227,51.270,0
17519.094,33.691,26.367,20.508,23.926,38.086,0
17519.098,40.527,26.367,20.508,20.508,27.344,0
17519.102,20.020,27.344,23.438,22.949,24.902,0
17519.106,13.672,27.832,23.926,37.109,26.367,0
17519.110,22.949,23.926,24.414,49.805,59.570,0
17519.114,20.508,20.020,24.902,46.387,98.633,0
17519.118,10.742,21.484,26.855,33.203,89.844,0
17519.122,10.742,24.902,27.344,23.438,47.363,0
17519.126,21.484,27.344,26.855,25.879,28.320,0
17519.130,20.508,24.414,29.297,26.855,6.836,0
17519.133,16.602,25.879,29.297,25.879,-25.391,0
17519.137,25.391,28.320,26.855,30.762,-18.555,0
17519.141,23.926,27.832,24.902,31.738,-1.953,0
17519.145,18.066,28.809,30.762,36.133,8.789,0
17519.149,19.043,29.785,30.273,40.039,59.082,0
17519.153,12.695,28.320,27.344,31.250,49.316,0
17519.157,15.137,23.926,30.762,35.156,-0.488,0
17519.161,20.508,21.973,34.180,39.551,16.602,0
17519.165,22.461,25.879,35.645,37.598,64.453,0
17519.169,24.902,31.250,32.715,28.809,86.914,0
17519.172,20.508,26.855,27.344,14.648,34.180,0
17519.176,15.625,26.855,27.832,24.414,-18.066,0
17519.180,25.391,30.273,29.297,35.645,-10.254,0
17519.184,23.438,27.832,30.762,29.785,-21.484,0
17519.188,10.742,26.367,27.344,29.297,-22.949,0
17519.192,20.508,24.902,23.438,37.598,13.672,0
17519.196,24.902,23.926,24.414,37.598,-4.395,0
17519.200,20.996,21.973,22.949,25.879,-26.855,0
17519.204,24.902,22.461,20.996,22.461,-5.859,2
17519.208,37.598,27.832,24.414,27.832,32.227,0
17519.212,28.320,30.273,26.855,30.762,55.664,0
17519.215,22.949,29.785,26.367,32.715,23.438,0
17519.219,37.109,28.809,24.414,38.086,17.090,0
17519.223,24.414,28.809,26.855,37.109,85.938,0
17519.227,4.395,28.809,28.809,22.461,63.965,0
17519.231,15.625,30.762,27.832,20.996,-23.926,0
17519.235,14.648,27.832,25.391,12.695,32.715,0
17519.239,8.789,24.414,21.973,12.207,92.773,0
17519.243,17.578,24.414,22.461,21.484,57.129,0
17519.247,22.949,22.461,24.414,24.414,90.332,0
17519.251,26.367,22.461,23.438,15.625,107.422,0
17519.255,20.020,26.367,23.438,15.625,48.828,0
17519.258,13.672,28.320,24.414,32.715,-6.348,0
17519.262,24.414,25.879,23.438,32.227,50.293,0
17519.266,28.809,27.832,24.414,28.320,81.543,0
17519.270,18.066,32.227,27.832,41.992,12.207,0
17519.274,26.855,30.273,28.809,37.109,10.254,0
17519.278,32.227,26.367,26.367,24.902,65.918,0
17519.282,30.273,28.320,25.391,33.203,30.273,0
17519.286,30.762,30.762,26.855,36.621,18.066,0
17519.290,29.785,25.391,26.855,31.738,36.621,0
17519.294,35.156,25.879,27.344,31.250,20.996,0
17519.297,38.574,28.809,25.879,33.203,-2.930,0
17519.301,23.438,26.855,28.320,42.480,44.922,0
17519.305,22.461,26.367,33.691,41.016,63.965,0
17519.309,25.879,25.879,32.715,44.922,33.203,0
17519.313,24.414,23.926,27.344,45.410,49.805,0
17519.317,23.926,26.367,25.879,32.227,81.543,0
17519.321,11.230,24.902,29.785,29.297,40.039,0
17519.325,15.625,21.973,29.297,28.320,17.578,0
17519.329,24.902,29.297,24.902,20.508,49.805,0
17519.333,29.785,37.109,23.438,22.949,32.227,0
17519.337,33.203,38.574,24.414,25.391,50.781,0
17519.340,29.785,37.109,23.438,24.414,8.301,0
17519.344,30.273,37.598,23.926,28.320,27.344,0
17519.348,32.227,37.109,21.484,27.832,88.379,0
17519.352,23.926,36.621,21.973,29.297,20.508,0
17519.356,28.320,37.598,24.414,30.273,1.953,0
17519.360,37.109,34.668,22.949,31.250,39.062,0
17519.364,30.273,33.691,22.461,30.273,7.812,0
17519.368,24.902,33.691,21.973,18.066,20.996,0
17519.372,35.645,29.297,24.414,25.391,65.430,0
17519.376,44.434,31.738,24.414,27.832,22.949,0
17519.380,37.109,37.598,22.949,22.949,12.695,0
17519.383,29.785,40.039,24.414,34.668,58.105,0
17519.387,17.578,37.598,29.785,36.621,50.293,0
17519.391,4.395,33.203,31.250,34.668,-16.602,0
17519.395,11.719,31.738,29.297,45.898,-34.180,0
17519.399,21.973,29.297,24.902,39.062,47.363,0
17519.403,18.066,30.273,24.902,29.297,30.762,0
17519.407,10.254,30.762,26.855,31.250,-18.555,0
17519.411,16.113,30.273,22.461,38.086,32.715,0
17519.415,25.879,25.391,21.973,40.039,72.754,0
17519.419,24.414,28.320,23.926,37.598,30.762,0
17519.422,13.184,30.762,21.484,31.738,52.734,0
17519.426,14.648,30.273,22.949,18.066,61.035,0
17519.430,22.949,29.297,26.367,16.602,-20.508,0
17519.434,21.973,26.855,23.926,22.461,12.695,0
17519.438,18.066,27.344,25.879,20.996,47.363,0
17519.442,29.297,27.832,26.855,23.438,47.363,0
17519.446,26.367,31.250,26.367,31.738,77.148,0
17519.450,25.879,28.320,27.832,35.156,64.941,0
17519.454,28.809,21.973,28.320,33.691,81.055,0
17519.458,17.578,24.902,26.855,32.227,14.648,0
17519.462,25.879,26.367,24.414,29.785,-22.461,0
17519.465,34.180,26.367,22.461,30.762,52.734,0
17519.469,13.184,28.809,27.344,29.297,26.367,0
17519.473,10.254,31.250,26.367,21.973,-18.555,0
17519.477,20.508,30.273,22.461,22.949,27.832,0
17519.481,24.414,26.855,25.391,27.344,57.617,0
17519.485,27.832,27.344,28.809,26.855,45.410,0
17519.489,19.531,22.949,28.320,23.438,45.898,0
17519.493,22.461,20.020,23.926,21.484,17.090,0
17519.497,24.902,20.020,22.949,18.555,-29.785,0
17519.501,16.602,20.996,22.949,21.484,-19.043,0
17519.505,20.508,25.391,24.902,31.250,3.418,0
17519.508,31.738,28.320,25.391,35.645,17.578,0
17519.512,37.109,27.832,21.973,37.598,21.973,0
17519.516,26.855,24.902,23.438,39.551,-27.832,0
17519.520,19.043,27.344,25.879,36.133,0.977,0
17519.524,23.438,31.738,24.414,31.738,74.707,0
17519.528,26.855,34.180,23.438,22.949,76.172,0
17519.532,27.832,34.180,23.438,18.555,64.941,0
17519.536,23.926,35.645,26.855,14.648,80.566,0
17519.540,31.250,36.621,27.344,12.695,41.992,0
17519.544,26.855,38.574,24.414,22.949,-0.977,0
17519.547,15.625,37.598,24.902,35.156,61.523,0
17519.551,22.461,33.691,24.902,28.320,55.664,0
17519.555,20.020,29.297,21.484,21.973,17.090,0
17519.559,25.391,23.926,22.949,23.926,3.418,0
17519.563,31.250,25.879,25.391,32.715,19.043,0
17519.567,21.973,30.762,24.414,27.832,-8.301,0
17519.571,28.809,36.133,26.855,30.273,6.836,0
17519.575,32.715,37.109,29.785,41.504,84.961,0
17519.579,27.832,36.621,26.855,33.203,61.035,0
17519.583,30.762,37.598,25.391,32.715,57.129,0
17519.587,21.484,37.598,31.250,28.809,25.879,0
17519.590,12.207,32.715,31.738,26.855,15.625,0
17519.594,14.160,26.855,25.879,26.367,23.438,0
17519.598,20.508,28.809,24.902,35.156,79.102,0
17519.602,16.113,28.809,26.855,30.762,50.293,0
17519.606,4.883,25.391,26.367,15.625,-20.020,0
17519.610,20.996,24.902,21.973,15.625,-4.883,0
17519.614,35.645,28.320,15.137,3.418,-22.461,0
17519.618,12.207,32.715,18.066,9.277,-4.395,0
17519.622,0.488,31.738,24.414,19.043,17.578,0
17519.626,5.859,31.250,24.902,17.090,19.043,0
17519.630,14.160,33.203,23.438,20.020,24.902,0
17519.633,17.090,32.715,25.391,20.996,1.953,0
17519.637,8.789,30.762,27.344,17.090,-23.438,0
17519.641,12.207,29.297,25.879,24.902,26.855,0
17519.645,30.762,25.879,26.855,31.250,21.973,0
17519.649,27.832,20.020,26.855,26.367,-33.203,0
17519.653,13.184,24.414,28.320,21.973,-33.203,0
17519.657,17.578,31.250,30.762,26.367,9.766,0
17519.661,20.996,27.344,28.320,34.180,26.855,0
17519.665,26.855,27.832,24.902,41.504,-11.230,0
17519.669,23.438,32.715,25.879,30.762,-7.812,0
17519.672,23.438,28.809,26.855,18.066,28.809,0
17519.676,22.461,23.926,26.367,20.996,55.176,0
17519.680,11.230,24.414,22.461,22.461,67.871,0
17519.684,13.672,23.926,21.973,25.879,37.598,0
17519.688,18.066,25.879,25.391,25.391,36.133,0
17519.692,18.066,25.879,25.391,27.832,46.387,0
17519.696,31.738,20.020,21.973,35.645,55.176,0
17519.700,27.344,17.090,25.391,30.273,35.645,0
17519.704,17.090,20.996,29.785,25.879,-7.812,0
17519.708,34.180,27.832,23.438,31.250,26.367,0
17519.712,35.645,28.809,18.555,32.715,53.223,0
17519.715,24.902,28.809,17.578,24.902,28.809,0
17519.719,20.020,28.320,22.461,22.949,3.418,0
17519.723,21.484,24.902,27.832,36.621,24.902,0
17519.727,28.809,26.855,27.344,33.691,63.965,0
17519.731,26.367,26.367,21.484,20.508,80.078,0
17519.735,20.508,22.949,24.902,21.973,81.543,0
17519.739,21.973,22.949,27.832,27.344,3.906,0
17519.743,15.137,22.949,27.832,30.762,14.160,0
17519.747,7.812,20.508,30.273,31.250,89.844,0
17519.751,7.812,19.531,30.762,23.438,90.332,0
17519.755,11.230,24.414,32.715,24.902,26.855,0
17519.758,15.137,29.785,28.809,35.645,-4.883,0
17519.762,23.926,29.785,25.879,29.297,-2.441,0
17519.766,21.973,28.809,27.344,21.973,10.742,0
17519.770,17.578,26.367,29.297,31.738,62.500,0
17519.774,19.043,22.461,29.785,38.574,35.645,0
17519.778,13.184,22.461,29.297,32.715,31.738,0
17519.782,26.855,25.879,28.320,24.902,87.891,0
17519.786,48.828,31.738,30.762,21.973,72.754,0
17519.790,32.227,27.832,29.297,25.391,19.531,0
17519.794,5.371,20.020,25.879,35.645,-14.160,0
17519.797,17.090,20.996,28.320,35.156,3.906,0
17519.801,20.508,26.367,32.227,23.438,11.719,0
17519.805,18.066,29.785,32.227,19.043,42.480,0
17519.809,37.109,33.691,30.762,34.668,19.043,0
17519.813,30.273,32.715,31.738,36.621,0.000,0
17519.817,12.695,24.414,32.715,20.996,53.223,0
17519.821,18.555,23.438,33.203,24.902,-13.184,0
17519.825,19.531,23.926,31.250,31.738,-40.527,0
17519.829,22.461,23.438,26.855,28.320,22.461,0
17519.833,15.625,26.367,24.414,24.902,67.871,0
17519.837,7.324,17.090,30.273,25.391,22.461,0
17519.840,20.020,11.230,30.273,26.855,-54.688,2
17519.844,35.156,26.367,26.855,25.879,15.137,0
17519.848,33.691,35.156,25.879,22.461,35.645,0
17519.852,19.043,32.715,27.832,16.602,23.926,0
17519.856,16.113,28.809,28.809,17.090,35.645,0
17519.860,17.578,30.273,26.855,24.414,53.223,0
17519.864,24.414,31.738,24.902,36.621,75.195,0
17519.868,22.461,32.227,27.832,30.273,48.828,0
17519.872,19.531,32.715,30.273,16.113,27.832,0
17519.876,24.414,29.297,28.320,28.320,27.344,0
17519.880,30.273,25.879,21.973,25.391,43.457,0
17519.883,35.156,27.832,20.508,18.066,59.570,0
17519.887,30.273,29.297,25.879,25.391,37.109,0
17519.891,22.461,25.391,25.391,26.855,5.371,0
17519.895,30.273,25.391,24.902,26.367,27.344,0
17519.899,26.367,27.344,22.949,26.855,52.246,0
17519.903,19.531,25.879,23.926,28.809,85.938,0
17519.907,34.180,26.855,27.344,28.809,67.871,0
17519.911,40.039,27.344,24.902,23.926,19.043,0
17519.915,41.016,23.438,26.367,24.902,27.344,0
17519.919,25.391,22.949,28.320,27.832,46.387,0
17519.922,4.395,27.344,27.832,24.902,91.309,0
17519.926,14.160,27.832,31.738,29.297,85.449,0
17519.930,24.902,26.367,28.320,29.297,30.762,0
17519.934,17.090,23.926,27.344,20.508,0.488,0
17519.938,24.902,18.555,29.785,20.996,12.207,0
17519.942,37.109,18.555,28.809,39.062,9.766,0
17519.946,26.367,24.414,28.809,39.551,45.898,0
17519.950,18.555,24.902,29.297,38.086,48.340,0
17519.954,29.297,27.344,32.227,47.852,12.695,0
17519.958,19.531,27.832,27.344,32.715,24.414,0
17519.962,8.301,27.344,23.926,25.879,12.207,0
17519.965,25.879,30.762,25.391,37.109,-34.180,0
17519.969,17.090,33.691,24.902,37.598,-5.859,0
17519.973,3.906,27.832,26.367,29.785,39.062,0
17519.977,20.020,20.020,29.297,20.020,52.246,0
17519.981,31.738,21.973,24.902,27.344,38.086,0
17519.985,26.855,29.785,26.367,37.109,68.848,0
17519.989,13.184,33.203,24.902,28.320,43.457,0
17519.993,10.742,31.250,19.043,23.926,18.066,0
17519.997,18.066,30.273,16.602,27.832,23.438,0
17520.001,12.207,28.809,19.043,26.367,-9.277,0
17520.005,16.113,26.855,24.902,29.785,-0.977,0
17520.008,21.973,26.855,24.902,24.414,-45.410,0
17520.012,32.227,25.391,23.438,25.879,13.672,0
17520.016,39.551,26.855,25.391,28.809,81.543,0
17520.020,26.855,28.320,29.297,27.832,14.648,0
17520.024,32.715,26.855,30.273,26.367,14.648,0
17520.028,33.691,29.297,25.391,22.949,62.500,0
17520.032,22.461,32.715,24.414,27.344,66.895,0
17520.036,22.949,36.621,29.297,31.250,34.180,0
17520.040,28.320,34.668,29.297,38.086,24.902,0
17520.044,34.668,32.715,27.344,36.621,46.875,0
17520.047,33.691,33.203,23.926,28.809,54.688,0
17520.051,23.438,30.273,24.414,27.344,43.945,0
17520.055,21.484,26.367,25.391,33.691,-0.977,0
17520.059,21.973,27.344,24.414,36.133,14.648,0
17520.063,22.949,30.273,26.367,37.109,42.480,0
17520.067,23.438,26.855,25.391,23.926,78.613,0
17520.071,14.160,24.414,24.902,13.672,53.711,0
17520.075,13.184,28.320,24.902,17.578,-21.484,0
17520.079,32.227,30.762,22.461,31.738,-21.484,0
17520.083,28.320,30.762,21.973,44.922,17.578,0
17520.087,7.324,34.180,24.414,32.715,58.594,0
17520.090,13.184,33.691,25.391,30.273,25.879,0
17520.094,30.762,32.227,24.902,35.645,-2.930,0
17520.098,25.879,32.715,23.438,32.715,15.137,0
17520.102,3.906,33.691,24.414,28.320,36.133,0
17520.106,14.648,35.156,25.391,26.367,18.066,0
17520.110,23.438,32.715,21.484,19.531,43.457,0
17520.114,20.020,29.297,18.555,25.391,44.922,0
17520.118,24.902,32.227,22.461,35.645,30.273,0
17520.122,34.668,35.645,25.391,35.645,7.812,0
17520.126,32.715,33.691,23.438,26.855,-4.883,0
17520.130,20.996,31.250,20.020,25.391,34.180,0
17520.133,17.090,31.738,21.973,31.250,-7.324,0
17520.137,9.766,33.203,27.832,21.484,-44.434,0
17520.141,3.418,26.855,27.344,29.785,29.297,0
17520.145,19.043,21.484,24.414,41.016,48.340,0
17520.149,36.133,27.832,24.902,33.691,-8.301,0
17520.153,20.508,32.715,31.738,31.250,38.574,0
17520.157,8.301,26.855,33.203,22.949,42.480,0
17520.161,16.602,19.043,26.855,25.391,41.504,0
17520.165,20.996,19.043,25.391,27.344,83.008,0
17520.169,21.973,24.414,27.832,26.367,48.340,0
17520.172,13.184,26.855,27.832,32.715,41.504,0
17520.176,11.719,26.367,25.879,33.203,63.965,0
17520.180,23.926,23.926,22.949,23.438,56.152,0
17520.184,30.762,25.879,25.879,20.508,2.441,0
17520.188,26.367,27.832,30.762,29.297,6.836,0
17520.192,19.043,24.902,27.344,42.480,12.695,0
17520.196,30.762,24.902,21.973,44.434,76.172,0
17520.200,30.762,21.973,24.902,42.480,109.375,0
17520.204,15.625,18.555,30.762,40.039,61.035,0
17520.208,26.367,22.949,28.809,25.879,38.574,0
17520.212,35.156,26.855,24.902,24.902,45.898,0
17520.215,26.855,28.320,26.367,41.504,32.715,0
17520.219,25.391,30.762,30.762,38.574,0.000,0
17520.223,34.180,30.762,30.762,27.344,-18.066,0
17520.227,36.133,28.320,29.785,28.809,-16.602,0
17520.231,25.879,21.484,26.367,31.250,54.688,0
17520.235,20.508,21.973,28.809,31.738,46.875,0
17520.239,27.344,21.973,28.809,25.879,-6.836,0
17520.243,24.414,17.578,26.855,28.809,40.039,0
17520.247,21.484,20.020,24.902,31.738,59.082,0
17520.251,14.160,24.902,23.438,13.184,18.555,0
17520.255,5.859,27.832,23.926,14.648,0.488,0
17520.258,14.160,27.344,21.973,23.438,8.789,0
17520.262,16.602,27.832,19.531,13.672,104.980,0
17520.266,19.531,30.273,23.438,23.438,101.074,0
17520.270,15.137,31.738,26.855,28.809,47.363,0
17520.274,21.484,29.297,26.855,25.391,73.730,0
17520.278,36.133,28.320,23.926,34.180,51.270,0
17520.282,32.715,26.367,22.949,40.527,73.242,0
17520.286,27.344,24.902,28.320,38.086,98.633,0
17520.290,34.668,24.414,27.832,40.039,72.266,0
17520.294,30.273,20.508,25.391,32.715,76.172,0
17520.297,14.648,21.973,20.508,22.949,20.996,0
17520.301,12.695,26.855,21.973,30.273,-2.441,0
17520.305,23.438,27.832,26.855,36.621,0.977,0
17520.309,25.879,28.809,19.531,37.109,-3.906,0
17520.313,32.715,27.344,13.184,32.227,54.688,0
17520.317,33.203,29.297,20.996,19.043,49.805,0
17520.321,20.020,32.227,25.391,7.812,-37.109,0
17520.325,26.855,25.879,25.391,26.855,-29.785,0
17520.329,36.621,22.461,28.320,39.551,45.410,0
17520.333,29.785,27.832,28.809,31.250,33.691,0
17520.337,16.113,28.809,34.180,34.668,63.477,0
17520.340,19.531,27.832,34.668,37.109,62.012,0
17520.344,37.598,30.273,26.855,27.832,25.879,0
17520.348,46.387,28.320,27.832,16.113,54.199,0
17520.352,18.555,22.461,29.297,16.602,28.809,0
17520.356,6.348,20.996,29.297,28.320,-18.555,0
17520.360,20.996,23.926,30.762,31.250,-39.062,0
17520.364,16.602,23.926,27.344,27.344,21.973,0
17520.368,6.836,25.391,27.344,19.043,62.500,0
17520.372,5.859,24.902,26.367,16.113,38.574,0
17520.376,16.602,27.832,24.414,38.086,0.488,0
17520.380,24.902,29.785,23.926,54.199,1.465,0
17520.383,15.137,28.320,22.461,41.016,28.320,0
17520.387,14.648,32.227,24.902,18.555,34.668,0
17520.391,26.367,27.344,25.391,18.066,-32.715,0
17520.395,30.762,20.508,25.391,20.020,-0.977,0
17520.399,28.809,23.926,25.879,14.648,64.453,0
17520.403,18.555,28.809,28.809,27.344,78.125,0
17520.407,16.113,29.785,31.738,35.156,44.922,0
17520.411,25.879,29.297,24.902,31.250,-15.137,0
17520.415,27.832,26.855,21.484,27.344,-6.836,1
17520.419,15.625,25.879,31.250,28.809,-13.184,0
17520.422,4.395,27.832,36.133,37.109,19.531,0
17520.426,17.090,28.320,30.273,48.340,77.148,0
17520.430,18.555,26.367,24.902,42.969,37.598,0
17520.434,5.859,21.973,23.926,23.926,0.977,0
17520.438,13.184,20.020,23.438,17.578,47.363,0
17520.442,20.508,25.879,23.438,13.672,43.457,0
17520.446,20.020,29.297,22.949,21.484,0.488,0
17520.450,14.648,26.367,22.949,30.762,5.371,0
17520.454,20.508,28.809,24.902,28.320,0.488,0
17520.458,35.156,29.785,21.973,27.832,-25.391,0
17520.462,38.086,25.391,20.508,41.992,-3.906,0
17520.465,43.457,27.344,23.926,44.922,4.883,0
17520.469,31.738,30.273,29.785,32.227,-29.297,0
17520.473,20.508,22.949,29.297,28.320,-23.438,0
17520.477,18.555,18.555,25.391,28.809,25.391,0
17520.481,11.719,22.461,22.949,27.832,18.555,0
17520.485,9.766,27.832,25.391,29.785,15.625,0
17520.489,15.137,27.344,26.367,36.133,67.383,0
17520.493,24.902,20.020,21.484,27.344,45.410,0
17520.497,38.574,15.137,19.531,24.902,50.781,0
17520.501,27.832,20.508,26.367,28.320,73.730,0
17520.505,12.207,26.855,32.715,32.227,23.926,0
17520.508,19.043,24.414,30.762,46.875,27.832,0
17520.512,20.996,19.531,26.367,42.480,55.176,0
17520.516,20.996,20.996,24.902,28.809,57.129,0
17520.520,17.578,23.438,26.855,30.762,32.715,0
17520.524,13.672,21.973,28.320,21.484,55.176,0
17520.528,25.391,17.090,26.855,16.113,71.289,0
17520.532,41.016,11.719,24.902,23.438,35.156,0
17520.536,20.020,19.531,27.344,29.785,52.246,0
17520.540,-1.465,25.879,26.855,32.715,25.879,0
17520.544,5.371,19.043,25.879,34.668,17.090,0
17520.547,16.602,18.066,26.855,24.902,72.754,0
17520.551,10.254,23.926,30.273,9.766,75.195,0
17520.555,-5.371,24.902,28.809,5.371,25.391,0
17520.559,16.602,25.391,25.391,16.602,41.016,0
17520.563,40.527,25.391,27.832,26.855,66.406,0
17520.567,23.926,24.414,35.156,24.902,26.855,0
17520.571,10.742,21.484,36.621,17.090,37.598,0
17520.575,21.484,22.949,29.785,21.484,134.766,0
17520.579,24.414,28.809,23.438,23.438,88.379,0
17520.583,22.461,29.297,20.020,19.043,23.438,0
17520.587,26.367,31.738,24.414,18.555,23.438,0
17520.590,25.879,31.250,26.367,20.996,32.227,0
17520.594,32.227,29.785,20.020,34.180,48.340,0
17520.598,33.203,31.738,18.555,28.809,22.949,0
17520.602,22.949,31.250,23.926,22.949,-5.859,0
17520.606,33.203,28.320,26.855,44.434,-41.016,0
17520.610,44.922,24.902,24.902,43.945,2.930,0
17520.614,45.898,24.414,21.484,28.809,44.922,0
17520.618,26.855,29.297,25.391,23.438,14.160,0
17520.622,14.648,29.785,29.297,27.832,-14.160,0
17520.626,16.113,24.902,26.367,31.738,-13.184,0
17520.630,20.020,21.973,21.973,24.902,55.664,0
17520.633,21.973,21.973,23.438,27.344,17.090,0
17520.637,19.531,27.344,27.344,25.879,-46.875,0
17520.641,19.531,27.344,23.926,17.578,-0.488,0
17520.645,27.344,24.414,22.461,27.344,36.621,0
17520.649,38.086,21.484,23.438,26.855,71.289,0
17520.653,24.414,20.996,27.832,21.973,100.098,0
17520.657,15.137,24.902,27.344,21.973,25.391,0
17520.661,15.625,24.902,23.926,24.902,16.113,0
17520.665,20.996,21.973,22.949,24.414,83.008,0
17520.669,25.391,27.832,30.273,28.320,23.926,0
17520.672,14.648,30.273,31.250,31.738,-38.574,0
17520.676,20.508,26.367,23.438,30.273,-1.953,0
17520.680,41.992,24.414,23.438,41.016,4.395,0
17520.684,26.367,21.484,25.391,31.738,0.488,0
17520.688,2.930,19.531,25.879,22.949,1.465,0
17520.692,2.930,24.902,25.391,29.785,6.348,0
17520.696,8.301,28.320,21.973,31.738,53.223,0
17520.700,12.207,24.902,21.973,28.320,85.938,0
17520.704,17.090,25.879,27.832,22.949,31.738,0
17520.708,22.461,26.855,24.414,23.926,25.391,0
17520.712,28.809,24.414,19.531,26.367,57.617,0
17520.715,25.879,22.461,19.531,22.461,41.992,0
17520.719,7.812,19.531,22.949,19.043,0.977,0
17520.723,12.207,22.461,26.367,31.250,-17.578,0
17520.727,25.879,24.414,25.391,30.273,22.461,0
17520.731,18.066,20.996,23.438,17.090,28.320,0
17520.735,13.184,22.949,26.367,14.648,-32.227,0
17520.739,21.973,29.297,27.344,25.391,3.418,0
17520.743,34.668,25.879,27.344,34.668,28.809,0
17520.747,41.504,22.949,23.438,21.973,36.133,0
17520.751,15.625,27.344,23.926,14.160,16.113,0
17520.755,-1.465,22.461,29.785,19.531,-39.551,0
17520.758,15.625,20.508,30.273,24.902,-21.484,0
17520.762,27.832,24.414,26.367,31.250,31.738,0
17520.766,31.738,22.949,25.391,29.785,9.766,0
17520.770,20.020,25.879,29.785,26.367,-25.879,0
17520.774,23.438,26.855,29.297,34.668,10.742,0
17520.778,28.809,22.949,23.926,43.457,4.395,0
17520.782,29.297,22.461,20.996,42.480,19.531,0
17520.786,22.461,24.414,28.320,39.062,23.438,0
17520.790,19.531,21.973,31.250,29.297,67.383,0
17520.794,31.250,19.043,26.855,20.996,74.707,0
17520.797,26.855,21.484,25.391,24.414,43.945,0
17520.801,33.203,28.320,27.344,22.949,72.754,0
17520.805,28.809,30.273,26.367,22.461,83.984,0
17520.809,19.043,27.832,27.832,34.180,32.715,0
17520.813,30.762,27.832,26.855,34.668,23.438,0
17520.817,13.184,27.832,28.320,30.273,11.719,0
17520.821,4.395,25.879,31.250,37.109,76.172,0
17520.825,17.090,27.832,28.320,36.621,108.887,0
17520.829,22.949,25.391,25.879,26.855,62.500,0
17520.833,30.273,20.508,26.367,29.785,50.293,0
17520.837,15.137,25.391,30.762,34.668,42.969,0
17520.840,8.789,29.297,32.715,40.527,51.270,0
17520.844,25.391,26.855,30.273,36.621,8.301,0
17520.848,32.227,24.414,27.344,25.879,41.504,0
17520.852,22.949,27.832,26.367,28.809,32.227,0
17520.856,23.926,29.785,22.949,26.367,4.883,0
17520.860,29.785,30.273,20.020,24.414,15.625,0
17520.864,33.203,26.367,20.020,27.344,3.906,0
17520.868,37.109,24.902,25.879,30.273,30.273,0
17520.872,20.508,25.879,30.273,36.621,26.367,0
17520.876,12.695,20.996,27.832,30.762,8.301,0
17520.880,19.043,22.461,22.949,28.809,41.016,0
17520.883,15.137,27.832,25.391,30.273,39.551,0
17520.887,10.742,29.297,28.320,30.762,37.109,0
17520.891,12.695,27.344,26.367,23.438,49.316,0
17520.895,23.926,25.879,24.414,29.297,47.363,0
17520.899,15.625,23.926,22.949,30.762,35.645,0
17520.903,13.184,25.879,26.367,20.508,13.672,0
17520.907,25.391,30.273,27.344,28.809,-6.348,0
17520.911,31.250,26.855,23.926,29.297,-12.207,0
17520.915,31.738,24.414,20.996,19.043,22.949,0
17520.919,22.949,29.297,29.297,29.297,15.137,0
17520.922,25.391,25.391,31.250,37.598,4.883,0
17520.926,31.738,20.996,26.855,34.668,18.066,0
17520.930,35.156,24.902,25.391,34.668,43.457,0
17520.934,25.391,29.785,29.297,29.785,70.801,0
17520.938,16.602,30.762,32.715,29.785,36.133,0
17520.942,23.438,23.926,28.809,29.785,25.391,0
17520.946,36.621,23.438,28.809,36.621,104.492,0
17520.950,27.344,25.879,29.297,28.809,43.945,0
17520.954,16.602,23.926,28.320,20.996,0.977,0
17520.958,26.367,22.949,29.785,34.180,34.668,0
17520.962,32.715,22.461,23.438,38.574,53.711,0
17520.965,32.715,22.461,20.508,36.133,74.707,0
17520.969,19.043,23.438,27.344,35.645,18.555,0
17520.973,0.000,23.926,29.297,42.480,-28.809,0
17520.977,14.648,26.367,27.344,47.852,17.090,0
17520.981,35.645,29.785,25.391,35.156,74.707,0
17520.985,32.227,34.668,28.809,25.879,35.156,0
17520.989,29.297,39.062,29.297,25.879,0.977,0
17520.993,29.297,35.645,23.438,32.715,-2.441,0
17520.997,21.973,27.344,21.484,43.457,23.438,0
17521.001,22.461,28.320,24.414,29.297,67.871,0
17521.005,34.180,32.227,29.297,23.438,68.359,0
17521.008,38.574,29.297,28.809,35.156,65.430,0
17521.012,47.363,28.809,23.926,42.480,38.574,0
17521.016,40.039,33.691,27.344,46.387,59.570,0
17521.020,14.648,36.621,34.180,31.250,22.949,0
17521.024,25.879,34.668,34.180,27.344,-4.395,0
17521.028,41.016,35.645,28.320,33.203,27.832,0
17521.032,38.574,38.086,25.879,31.738,68.359,0
17521.036,26.855,42.480,32.227,20.996,57.617,0
17521.040,20.508,41.504,32.715,20.508,-2.930,0
17521.044,33.203,35.156,26.855,33.691,8.789,0
17521.047,38.574,32.227,20.996,26.855,83.496,0
17521.051,24.414,31.250,25.879,23.926,55.664,0
17521.055,11.719,27.832,30.762,30.273,0.488,0
17521.059,11.230,28.320,25.879,38.086,50.293,0
17521.063,25.391,32.715,23.926,44.434,93.750,0
17521.067,27.832,34.180,27.344,35.645,75.195,0
17521.071,24.902,35.156,27.344,35.645,48.340,0
17521.075,24.414,31.250,25.879,31.250,16.602,0
17521.079,36.621,26.367,23.438,21.973,67.871,0
17521.083,37.598,29.785,21.973,24.902,48.828,0
17521.087,20.996,31.250,26.855,30.273,10.254,1
17521.090,16.113,26.855,27.344,32.715,18.555,0
17521.094,20.996,26.367,23.438,36.133,-7.812,0
17521.098,31.738,22.949,23.926,32.715,29.297,0
17521.102,23.926,20.996,29.785,19.531,6.348,0
17521.106,9.766,23.438,30.273,22.461,3.906,0
17521.110,18.555,26.855,28.320,29.785,59.570,0
17521.114,28.809,27.344,27.344,31.250,67.383,0
17521.118,19.531,28.809,31.738,40.039,28.320,0
17521.122,19.531,32.715,31.738,36.621,30.762,0
17521.126,30.273,34.668,27.832,32.227,52.246,0
17521.130,26.855,29.785,26.367,42.969,18.066,0
17521.133,25.391,30.273,28.320,51.270,45.898,0
17521.137,31.738,37.109,33.691,36.133,45.898,0
17521.141,26.367,27.344,33.203,18.555,9.277,0
17521.145,28.809,22.949,30.273,35.156,32.227,0
17521.149,24.902,29.785,26.855,36.133,71.289,0
17521.153,10.742,30.762,28.809,14.160,36.133,0
17521.157,26.855,27.832,30.273,12.695,22.949,0
17521.161,46.875,28.320,24.902,18.555,78.125,0
17521.165,18.066,27.832,22.461,24.902,79.102,0
17521.169,-4.883,32.715,28.809,31.738,68.848,0
17521.172,7.812,34.668,32.227,48.340,39.062,0
17521.176,20.508,31.250,30.762,48.828,52.734,0
17521.180,41.504,26.367,25.391,33.203,41.504,0
17521.184,39.062,28.809,30.273,38.574,29.785,0
17521.188,27.344,32.715,34.668,29.785,-11.719,0
17521.192,31.250,29.297,29.297,15.137,5.859,0
17521.196,34.668,24.414,26.367,18.555,67.383,0
17521.200,43.945,23.926,27.344,25.879,70.312,0
17521.204,30.762,27.832,31.250,24.414,36.133,0
17521.208,10.254,29.785,27.832,20.020,-30.762,0
17521.212,18.555,23.438,23.438,18.555,-6.348,0
17521.215,23.926,20.508,22.949,19.043,-40.527,0
17521.219,15.625,24.902,27.832,21.484,-69.336,0
17521.223,14.160,20.996,27.832,27.344,-30.273,0
17521.227,29.785,19.531,25.879,44.434,17.578,0
17521.231,37.598,20.020,23.926,37.598,19.043,0
17521.235,25.391,22.461,26.855,29.785,19.531,0
17521.239,22.949,24.414,28.320,30.762,19.531,0
17521.243,27.344,26.855,25.391,18.555,-16.602,0
17521.247,42.480,25.391,22.949,14.160,7.324,0
17521.251,26.855,22.949,25.391,18.066,-2.441,0
17521.255,14.160,28.809,28.320,30.762,-15.137,0
17521.258,28.320,21.973,25.391,22.949,10.742,0
17521.262,21.973,14.160,22.461,20.508,9.766,0
17521.266,9.766,19.043,25.391,33.203,34.180,0
17521.270,7.324,24.902,33.691,33.203,11.230,0
17521.274,26.367,26.367,31.738,22.949,2.930,0
17521.278,45.410,23.438,23.438,9.766,19.531,0
17521.282,23.438,19.531,23.438,15.625,46.387,0
17521.286,0.000,20.508,30.273,16.113,20.508,0
17521.290,20.508,23.926,32.227,10.742,5.859,0
17521.294,20.508,20.508,27.832,15.625,43.945,0
17521.297,17.090,19.043,25.391,23.926,66.895,0
17521.301,20.996,22.461,28.809,30.273,56.152,0
17521.305,7.324,21.484,29.297,33.691,33.203,0
17521.309,14.160,19.043,25.391,30.273,59.082,0
17521.313,33.691,18.066,24.414,39.551,57.617,0
17521.317,34.180,23.926,26.367,41.992,34.668,0
17521.321,20.996,27.832,26.855,22.461,-4.883,0
17521.325,15.625,23.926,29.297,17.578,21.484,0
17521.329,19.043,20.020,27.344,18.066,68.359,0
17521.333,25.391,21.973,26.367,23.438,23.438,0
17521.337,20.020,25.391,31.738,32.227,-0.977,0
17521.340,20.996,24.902,27.344,34.180,5.371,0
17521.344,37.109,24.902,22.461,30.762,18.555,0
17521.348,29.785,22.461,23.438,27.344,88.379,0
17521.352,12.695,23.438,28.809,25.391,53.711,0
17521.356,19.043,28.320,27.344,20.508,-9.277,0
17521.360,26.855,28.320,18.555,25.391,50.293,0
17521.364,28.809,29.785,19.531,30.273,40.527,0
17521.368,21.484,31.250,29.785,24.902,57.129,0
17521.372,9.277,27.344,30.273,19.043,49.316,0
17521.376,13.672,23.926,24.902,27.832,27.344,0
17521.380,18.066,23.438,19.531,25.391,9.766,0
17521.383,0.000,25.879,20.020,11.230,-0.977,0
17521.387,-6.348,30.762,29.297,13.184,55.664,0
17521.391,17.578,28.320,25.879,25.879,78.125,0
17521.395,12.695,19.531,19.043,22.949,53.711,0
17521.399,-0.977,20.020,21.484,27.344,45.898,0
17521.403,11.230,27.832,26.367,30.762,73.242,0
17521.407,21.973,29.785,23.926,24.414,46.875,0
17521.411,30.273,25.879,18.066,31.250,93.750,0
17521.415,34.668,26.855,18.066,38.086,99.121,0
17521.419,23.926,32.715,26.367,30.762,23.926,0
17521.422,22.461,36.133,27.344,23.438,-9.277,0
17521.426,24.902,31.250,22.949,27.344,3.418,0
17521.430,34.668,25.879,21.973,28.809,9.766,0
17521.434,33.691,26.367,25.879,33.203,2.930,0
17521.438,29.785,28.320,28.809,33.691,34.668,0
17521.442,34.180,24.902,27.344,35.645,-2.930,0
17521.446,31.738,17.578,25.879,49.805,-12.695,0
17521.450,30.762,24.902,29.297,56.641,33.203,0
17521.454,27.344,33.691,34.668,53.223,15.137,0
17521.458,42.969,35.645,31.250,43.945,31.738,0
17521.462,49.805,31.738,23.926,35.645,59.570,0
17521.465,39.062,27.832,23.438,39.062,51.758,0
17521.469,33.691,30.762,28.320,37.598,-3.906,0
17521.473,41.504,28.320,24.902,33.203,-4.395,0
17521.477,39.551,26.855,19.531,43.457,53.711,0
17521.481,24.414,23.438,17.090,41.992,4.395,0
17521.485,26.855,26.367,23.438,38.086,-9.277,0
17521.489,32.227,32.227,27.344,45.410,30.762,0
17521.493,33.203,30.273,23.438,40.527,-3.418,0
17521.497,34.668,25.391,20.020,19.043,-10.742,0
17521.501,17.578,26.855,23.438,20.020,4.395,0
17521.505,9.766,29.785,27.344,31.738,4.395,0
17521.508,12.207,26.855,26.367,24.414,49.805,0
17521.512,20.020,21.484,20.020,26.367,48.340,0
17521.516,30.273,24.414,18.066,25.879,36.621,0
17521.520,12.207,29.297,23.438,14.648,33.203,0
17521.524,12.695,26.367,23.926,18.066,-6.348,0
17521.528,33.203,20.996,20.508,30.273,-13.184,0
17521.532,36.133,18.066,21.484,27.832,-19.043,0
17521.536,24.902,27.832,27.832,22.949,15.137,0
17521.540,11.230,30.762,28.320,33.691,89.355,0
17521.544,19.043,24.414,23.926,30.273,61.035,0
17521.547,29.297,25.391,21.973,17.578,10.254,0
17521.551,22.461,29.297,25.879,13.184,20.020,0
17521.555,17.578,27.832,28.809,18.066,25.879,0
17521.559,13.184,22.461,25.879,21.973,41.504,0
17521.563,18.066,19.043,23.438,30.273,45.898,0
17521.567,17.578,23.438,26.367,25.879,15.137,0
17521.571,14.160,22.949,28.320,9.766,21.484,0
17521.575,27.832,18.555,26.367,22.949,30.762,0
17521.579,26.367,19.531,22.949,42.480,33.203,0
17521.583,15.137,22.949,25.391,38.574,60.059,0
17521.587,13.672,26.855,33.691,35.156,66.895,0
17521.590,25.879,24.902,33.203,39.062,59.570,0
17521.594,58.594,21.484,29.785,41.016,62.500,0
17521.598,52.246,22.461,25.391,28.809,19.531,0
17521.602,3.418,25.391,31.738,26.855,-34.668,0
17521.606,13.672,28.809,34.180,39.062,17.578,0
17521.610,27.832,27.832,26.855,36.133,32.715,0
17521.614,20.996,23.926,27.344,41.992,61.035,0
17521.618,19.531,23.438,33.203,28.320,68.359,0
17521.622,14.648,24.414,30.762,24.414,16.113,0
17521.626,18.066,25.879,26.367,23.926,28.809,0
17521.630,17.090,25.391,20.996,21.484,8.301,0
17521.633,17.578,27.832,23.926,35.645,-29.785,0
17521.637,18.555,31.738,29.297,37.598,-13.184,0
17521.641,19.043,31.250,21.973,34.668,15.625,0
17521.645,35.645,28.320,16.113,37.109,25.879,0
17521.649,45.410,28.320,17.090,32.227,35.645,0
17521.653,20.996,28.320,23.926,27.344,-34.180,0
17521.657,0.977,24.902,22.461,29.785,-15.625,0
17521.661,19.043,23.438,16.602,25.879,75.195,0
17521.665,35.645,24.902,15.625,30.762,56.641,0
17521.669,12.207,25.391,21.973,30.273,45.898,0
17521.672,11.719,23.926,25.391,24.902,39.551,0
17521.676,26.855,25.391,23.926,28.809,86.426,0
17521.680,23.438,27.344,20.996,38.574,75.195,0
17521.684,24.902,30.273,27.344,53.223,-4.395,0
17521.688,18.555,32.227,30.273,34.668,20.508,0
17521.692,23.926,31.738,24.902,15.625,63.965,0
17521.696,53.223,31.738,18.066,23.926,7.812,2
17521.700,35.645,30.762,18.066,29.297,10.254,0
17521.704,10.254,30.762,27.344,31.738,88.867,0
17521.708,15.137,31.250,27.344,38.574,80.566,0
17521.712,22.461,25.879,22.461,40.527,78.125,0
17521.715,31.250,24.414,19.531,47.363,77.637,0
17521.719,22.949,31.738,23.926,46.387,11.230,0
17521.723,18.555,34.668,24.414,36.621,-4.395,0
17521.727,27.344,32.715,15.625,32.227,24.414,0
17521.731,29.785,29.785,14.648,28.320,49.805,0
17521.735,25.391,31.738,23.926,27.344,46.387,0
17521.739,22.461,37.109,29.297,35.156,30.762,0
17521.743,26.367,33.691,26.855,41.504,61.523,0
17521.747,36.133,24.902,23.438,43.945,44.922,0
17521.751,31.250,27.344,25.879,37.109,8.789,0
17521.755,29.297,30.273,27.832,40.527,5.371,0
17521.758,29.297,26.367,24.902,45.898,43.945,0
17521.762,32.715,24.902,23.926,36.133,34.180,0
17521.766,33.203,30.273,28.809,42.969,54.688,0
17521.770,18.066,35.645,34.668,42.969,57.617,0
17521.774,24.902,38.574,28.809,25.879,4.395,0
17521.778,26.367,33.691,20.020,20.020,41.016,0
17521.782,25.391,30.273,23.438,32.715,52.734,0
17521.786,18.066,35.645,33.203,35.156,56.152,0
17521.790,16.602,33.203,33.691,28.320,37.598,0
17521.794,24.414,25.391,27.832,21.484,34.180,0
17521.797,27.344,23.926,22.461,20.020,79.590,0
17521.801,15.625,26.855,27.344,27.832,36.621,0
17521.805,15.625,24.902,34.668,34.180,30.762,0
17521.809,29.297,22.949,32.227,31.250,83.984,0
17521.813,14.648,27.344,24.902,19.531,39.062,0
17521.817,3.906,32.715,30.273,24.414,-12.207,0
17521.821,18.555,33.203,36.621,32.227,0.488,0
17521.825,19.043,28.809,35.156,25.391,-12.207,0
17521.829,16.602,22.461,30.273,17.578,3.906,0
17521.833,19.531,26.367,30.762,32.227,81.543,0
17521.837,15.625,30.273,32.715,37.109,78.125,0
17521.840,18.555,24.902,25.879,31.250,24.414,0
17521.844,26.367,18.555,24.902,32.227,59.082,0
17521.848,24.902,21.484,26.855,23.926,61.523,0
17521.852,12.695,31.250,29.297,19.043,16.602,0
17521.856,15.625,32.715,28.320,27.344,1.953,0
17521.860,31.738,27.344,22.461,24.902,22.461,0
17521.864,37.598,27.832,21.973,33.691,39.551,0
17521.868,13.672,30.762,29.297,29.785,29.785,0
17521.872,8.301,32.715,33.203,14.648,67.871,0
17521.876,30.762,32.715,26.855,29.297,108.887,0
17521.880,46.875,23.926,22.949,37.598,137.695,0
17521.883,22.949,25.879,26.855,35.156,85.938,0
17521.887,0.000,36.621,34.180,38.574,1.953,0
17521.891,11.230,35.645,31.738,35.156,-42.969,0
17521.895,27.832,30.762,24.414,30.762,-33.203,0
17521.899,28.809,30.762,26.367,27.832,43.457,0
17521.903,17.090,29.297,29.297,31.250,39.062,0
17521.907,14.160,25.391,24.414,35.645,15.625,0
17521.911,20.996,28.320,18.555,30.273,67.383,0
17521.915,25.879,30.762,15.137,35.645,81.055,0
17521.919,18.066,32.227,20.020,31.738,-36.133,0
17521.922,8.789,30.762,21.484,19.531,-8.789,0
17521.926,24.414,26.855,18.066,16.113,25.391,0
17521.930,39.062,23.438,17.578,13.672,59.570,0
17521.934,29.785,22.949,23.438,18.066,123.535,0
17521.938,27.344,27.344,26.367,23.926,60.547,0
17521.942,22.949,30.762,22.461,32.227,3.906,0
17521.946,14.160,29.785,18.066,29.297,18.066,0
17521.950,5.859,26.855,22.949,18.555,17.090,0
17521.954,7.324,28.809,29.785,20.020,-5.859,0
17521.958,14.648,29.297,25.391,31.738,21.973,0
17521.962,24.902,24.414,22.949,41.504,45.410,0
17521.965,25.391,27.344,23.926,37.598,4.395,0
17521.969,15.137,33.691,28.809,39.551,-52.734,0
17521.973,21.484,33.203,27.344,39.062,1.953,0
17521.977,23.438,27.344,21.973,28.320,41.992,0
17521.981,24.902,20.020,20.996,18.555,30.762,0
17521.985,27.344,27.344,30.273,35.156,33.691,0
17521.989,30.762,33.691,32.715,39.551,5.859,0
17521.993,44.434,28.809,21.484,27.344,-3.906,0
17521.997,44.434,23.926,19.043,29.785,23.438,0
17522.001,10.742,25.879,23.438,19.043,60.059,0
17522.005,5.859,29.297,29.297,29.785,63.965,0
17522.008,20.508,27.344,27.344,44.922,-10.254,0
17522.012,23.926,25.879,22.949,36.133,8.301,0
17522.016,28.809,25.391,26.855,29.297,29.785,0
17522.020,21.973,21.973,34.180,39.551,-26.855,0
17522.024,20.996,24.414,35.645,48.828,-13.184,0
17522.028,31.738,30.273,31.738,34.668,55.664,0
17522.032,39.551,29.297,28.320,33.691,41.504,0
17522.036,25.391,29.785,32.715,38.574,15.625,0
17522.040,17.578,28.809,28.320,26.367,49.316,0
17522.044,28.320,26.367,23.438,26.367,37.109,0
17522.047,41.016,26.367,24.902,34.180,80.078,0
17522.051,41.992,30.762,29.297,37.598,36.133,0
17522.055,37.598,33.203,29.297,39.551,-55.664,0
17522.059,22.461,26.855,20.020,29.785,-35.645,0
17522.063,11.230,21.484,18.555,20.996,41.992,0
17522.067,17.578,22.461,24.902,30.762,64.453,0
17522.071,13.672,28.320,26.367,37.598,26.855,0
17522.075,20.020,29.785,24.414,40.527,40.527,0
17522.079,35.156,29.297,18.066,22.949,54.199,0
17522.083,20.996,30.273,19.043,11.719,81.055,0
17522.087,14.648,28.809,27.344,28.320,33.203,0
17522.090,21.484,26.855,25.391,33.691,-19.043,0
17522.094,33.203,22.949,18.555,28.809,69.824,0
17522.098,41.016,23.438,17.578,25.391,80.078,0
17522.102,25.879,34.668,22.949,24.902,-3.906,0
17522.106,34.180,38.574,23.438,26.367,-15.137,0
17522.110,54.199,36.133,22.461,37.598,6.836,0
17522.114,36.133,34.180,21.484,43.457,49.805,0
17522.118,3.418,32.227,24.902,20.508,50.293,0
17522.122,5.859,32.227,25.879,17.090,4.883,0
17522.126,23.926,33.203,21.973,35.156,-4.883,0
17522.130,26.855,27.344,18.066,33.203,22.461,0
17522.133,17.578,21.973,21.973,26.367,4.883,0
17522.137,31.250,28.320,26.855,36.133,0.977,0
17522.141,45.410,34.180,24.414,31.250,57.129,0
17522.145,39.062,32.227,20.996,22.461,84.961,0
17522.149,21.973,31.738,22.461,35.156,50.293,0
17522.153,14.160,34.668,29.297,35.645,69.824,0
17522.157,32.227,32.715,31.738,28.809,101.562,0
17522.161,43.945,29.785,23.438,38.086,50.781,0
17522.165,48.828,30.273,20.996,40.039,25.391,0
17522.169,27.832,31.738,27.832,37.109,-20.508,0
17522.172,17.578,29.785,25.391,34.180,-28.809,0
17522.176,36.621,22.461,19.531,26.367,48.340,0
17522.180,41.504,18.555,17.578,20.020,63.477,0
17522.184,16.602,25.879,24.902,29.785,19.043,0
17522.188,4.883,30.273,28.320,37.109,0.000,0
17522.192,20.020,24.902,26.367,31.250,39.551,0
17522.196,27.832,20.996,24.414,34.668,74.219,0
17522.200,28.320,24.902,26.855,20.508,45.898,0
17522.204,22.949,26.855,33.203,24.414,9.277,0
17522.208,23.926,24.902,29.785,35.645,9.277,0
17522.212,23.926,22.461,21.973,33.203,20.996,0
17522.215,19.531,20.996,24.902,28.809,13.184,0
17522.219,11.719,22.461,35.156,30.273,-10.742,0
17522.223,12.207,21.484,30.762,32.715,7.324,0
17522.227,11.230,23.926,20.508,26.367,15.137,0
17522.231,20.996,26.367,19.531,31.738,13.184,0
17522.235,24.414,29.785,29.785,43.945,35.645,0
17522.239,17.578,33.203,32.227,42.969,-6.348,0
17522.243,18.555,29.785,24.902,27.832,-20.996,0
17522.247,26.367,26.367,20.508,26.855,34.668,0
17522.251,19.531,30.273,24.414,32.715,-5.371,0
17522.255,13.672,32.227,31.250,37.109,-5.371,0
17522.258,30.762,30.762,26.367,32.715,28.809,0
17522.262,39.062,22.949,19.043,28.809,76.660,0
17522.266,21.484,23.926,22.949,40.527,73.730,0
17522.270,11.230,33.203,29.297,38.574,30.762,0
17522.274,34.668,34.180,28.809,30.273,5.371,0
17522.278,45.410,30.273,25.391,29.785,64.941,0
17522.282,29.297,28.809,23.926,33.203,129.883,0
17522.286,9.766,31.250,28.809,29.297,41.016,0
17522.290,12.695,27.832,29.297,25.879,13.184,0
17522.294,20.508,22.461,22.461,24.902,116.211,0
17522.297,22.461,21.484,22.461,34.668,65.918,0
17522.301,6.348,24.414,29.297,39.062,-37.598,0
17522.305,-4.395,28.809,30.273,26.855,-10.254,0
17522.309,14.648,23.438,24.414,22.461,64.453,0
17522.313,20.996,16.602,17.578,22.461,43.945,0
17522.317,11.719,24.902,19.531,18.066,36.621,0
17522.321,22.461,32.227,25.391,23.438,66.406,0
17522.325,30.762,31.738,25.391,24.414,41.992,0
17522.329,27.832,28.320,21.484,21.484,-2.441,0
17522.333,21.973,29.297,21.973,32.227,-38.574,0
17522.337,14.160,29.785,29.297,30.762,-4.883,0
17522.340,20.508,26.367,28.809,32.227,6.348,0
17522.344,21.973,28.320,22.949,44.922,40.039,0
17522.348,14.648,27.344,20.508,33.203,65.918,0
17522.352,9.277,25.391,24.902,16.602,-31.738,0
17522.356,22.461,21.484,25.391,23.926,-87.891,0
17522.360,38.086,19.043,18.555,36.133,31.250,0
17522.364,40.039,21.484,16.113,26.855,100.586,0
17522.368,27.832,28.809,24.902,17.090,23.438,0
17522.372,26.367,31.250,29.297,28.320,-16.113,1
17522.376,37.109,30.273,26.367,39.551,45.898,0
17522.380,36.621,25.391,21.973,35.645,58.105,0
17522.383,31.738,23.926,23.438,38.086,74.707,0
17522.387,25.391,23.438,29.297,43.457,78.613,0
17522.391,27.832,17.578,28.320,33.691,22.949,0
17522.395,23.926,20.508,22.461,33.203,15.137,0
17522.399,24.902,25.879,20.020,31.738,94.727,0
17522.403,21.973,27.832,29.297,28.809,83.496,0
17522.407,21.973,26.855,31.738,35.645,16.602,0
17522.411,33.203,24.902,24.414,40.527,-12.207,0
17522.415,28.809,24.414,22.461,23.926,-7.324,0
17522.419,12.207,25.391,26.855,17.090,6.348,0
17522.422,12.207,21.484,27.832,35.645,-1.953,0
17522.426,31.738,20.996,25.391,38.574,24.902,0
17522.430,38.086,27.344,24.414,27.344,58.594,0
17522.434,19.043,26.855,25.879,20.996,20.508,0
17522.438,13.672,20.996,26.367,22.949,12.207,0
17522.442,29.785,20.996,25.391,25.879,24.902,0
17522.446,32.715,21.973,25.879,31.250,71.289,0
17522.450,27.832,24.414,28.809,42.969,66.406,0
17522.454,20.996,29.785,31.250,45.898,-21.484,0
17522.458,10.742,28.809,25.879,24.414,8.789,0
17522.462,23.438,22.461,19.043,15.625,106.934,0
17522.465,36.133,24.414,22.461,22.461,93.750,0
17522.469,19.043,30.273,28.320,23.926,44.434,0
17522.473,9.766,28.320,27.832,29.297,38.574,0
17522.477,16.113,23.438,23.926,33.203,20.020,0
17522.481,17.578,19.043,23.438,30.762,17.578,0
17522.485,15.625,21.484,27.832,36.133,26.367,0
17522.489,16.113,27.344,25.879,34.668,19.531,0
17522.493,23.926,28.320,20.508,28.809,20.508,0
17522.497,23.926,25.391,20.020,25.879,52.734,0
17522.501,8.301,22.461,24.902,20.508,52.246,0
17522.505,12.695,25.391,30.762,23.438,33.691,0
17522.508,30.762,22.461,28.809,22.461,31.738,0
17522.512,34.668,23.438,20.996,25.391,50.781,0
17522.516,26.855,28.809,19.043,26.367,34.668,0
17522.520,26.855,28.809,26.367,32.227,27.832,0
17522.524,26.367,27.832,26.855,36.133,37.109,0
17522.528,27.344,22.461,20.020,37.109,24.902,0
17522.532,29.297,21.973,17.090,29.785,14.648,0
17522.536,17.578,30.762,25.879,18.066,40.039,0
17522.540,23.438,29.297,24.902,22.949,34.180,0
17522.544,25.879,23.926,20.996,27.832,31.250,0
17522.547,24.902,23.926,20.996,25.391,31.250,0
17522.551,14.648,29.297,26.367,30.273,35.156,0
17522.555,18.066,32.227,30.762,40.527,52.734,0
17522.559,35.645,28.809,22.461,29.785,18.066,0
17522.563,37.598,29.297,15.625,23.438,8.789,0
17522.567,14.648,33.203,18.066,29.297,65.918,0
17522.571,1.953,28.320,23.926,31.738,78.125,0
17522.575,14.648,19.043,24.414,38.574,12.207,0
17522.579,30.273,18.555,21.484,33.203,-21.484,0
17522.583,38.086,25.879,22.949,26.367,44.434,0
17522.587,22.461,34.180,28.809,25.879,52.246,0
17522.590,11.719,31.738,21.973,21.484,34.668,0
17522.594,28.809,24.414,18.066,30.762,44.922,0
17522.598,40.527,26.367,24.414,34.180,82.520,0
17522.602,27.832,32.715,29.297,35.156,118.652,0
17522.606,25.391,31.738,29.785,26.855,69.336,0
17522.610,41.992,27.344,24.902,22.949,23.926,0
17522.614,43.457,24.414,20.996,28.809,35.645,0
17522.618,21.484,27.344,25.391,31.738,80.078,0
17522.622,22.949,24.902,32.227,40.527,49.805,0
17522.626,24.414,19.531,31.738,41.016,44.434,0
17522.630,22.949,21.484,23.438,42.480,78.613,0
17522.633,26.367,26.855,23.438,40.039,-3.418,0
17522.637,18.555,28.809,29.297,41.016,-45.898,0
17522.641,22.949,20.996,24.414,32.227,-20.508,0
17522.645,37.109,19.531,24.902,16.602,55.176,0
17522.649,32.715,23.438,28.809,26.367,32.715,0
17522.653,6.836,22.949,30.762,35.156,80.566,0
17522.657,14.160,20.996,27.832,29.785,141.113,0
17522.661,41.504,17.090,18.555,27.832,36.133,0
17522.665,36.621,13.672,17.090,28.809,56.152,0
17522.669,21.973,20.020,32.227,28.809,42.969,0
17522.672,34.668,30.273,40.039,41.504,-31.738,0
17522.676,26.855,26.367,25.391,51.270,-41.504,0
17522.680,16.602,12.207,12.695,36.133,43.945,0
17522.684,17.090,18.066,20.508,22.461,93.750,0
17522.688,17.578,28.320,25.879,15.137,16.602,0
17522.692,25.879,24.414,21.973,14.648,21.484,0
17522.696,35.156,22.949,18.555,34.668,65.918,0
17522.700,25.391,25.879,21.484,29.785,27.832,0
17522.704,21.484,28.320,27.832,13.184,-20.996,0
17522.708,40.527,25.879,26.855,30.762,25.879,0
17522.712,36.133,21.484,22.461,40.527,65.918,0
17522.715,28.809,20.020,20.996,31.738,51.270,0
17522.719,26.367,26.855,26.367,30.762,34.180,0
17522.723,34.180,25.391,26.367,28.320,31.738,0
17522.727,31.250,17.578,25.391,31.250,1.953,0
17522.731,5.371,20.508,26.367,32.227,49.316,0
17522.735,0.488,24.414,31.738,36.133,62.012,0
17522.739,7.324,25.879,32.715,39.062,4.883,0
17522.743,18.555,25.879,26.855,31.250,29.785,0
17522.747,33.203,21.973,20.996,25.391,79.590,0
17522.751,34.668,24.902,25.879,34.668,26.855,0
17522.755,14.160,28.809,29.785,41.992,-16.113,0
17522.758,17.090,23.438,24.902,35.645,13.184,0
17522.762,37.598,17.578,21.973,41.992,45.410,0
17522.766,34.668,20.020,22.949,37.598,26.855,0
17522.770,34.180,28.320,28.809,35.156,1.465,0
17522.774,29.297,33.203,27.832,31.250,1.465,0
17522.778,26.367,27.344,20.996,21.484,46.875,0
17522.782,37.109,24.414,17.578,21.973,83.008,0
17522.786,35.156,33.203,27.344,26.367,45.410,0
17522.790,35.645,32.227,29.297,26.367,6.836,0
17522.794,38.574,25.391,22.949,26.855,63.477,0
17522.797,20.508,21.484,20.996,41.504,98.145,0
17522.801,5.859,26.367,25.879,34.668,73.730,0
17522.805,9.277,29.785,28.320,22.461,13.672,0
17522.809,30.273,28.320,25.879,24.902,-6.836,0
17522.813,43.945,25.391,24.902,29.297,35.645,0
17522.817,37.598,25.391,27.832,34.668,27.832,0
17522.821,35.645,28.809,31.738,31.738,-8.301,0
17522.825,24.902,27.832,29.785,39.062,8.301,0
17522.829,23.438,25.879,24.414,55.664,54.688,0
17522.833,20.996,29.297,22.949,32.227,71.289,0
17522.837,20.020,32.715,28.809,16.113,30.273,0
17522.840,21.484,26.855,27.832,20.508,6.348,0
17522.844,17.578,21.973,23.926,24.902,-3.418,0
17522.848,26.855,24.902,25.879,33.691,38.574,0
17522.852,17.090,33.203,31.738,37.598,98.145,0
17522.856,14.160,34.180,30.762,29.297,27.832,0
17522.860,25.391,30.273,24.902,19.043,21.484,0
17522.864,27.344,23.438,21.484,32.715,67.383,0
17522.868,21.484,20.996,31.738,40.527,22.461,0
17522.872,17.578,29.297,33.691,26.855,20.020,0
17522.876,29.297,34.180,23.438,29.297,35.645,0
17522.880,29.297,29.297,19.043,31.738,54.199,0
17522.883,11.719,26.367,24.414,22.461,64.453,0
17522.887,14.648,31.250,33.691,16.602,24.902,0
17522.891,24.902,32.715,30.273,13.672,-3.418,0
17522.895,30.762,29.297,20.508,20.020,36.621,0
17522.899,38.086,26.855,21.484,25.879,53.711,0
17522.903,25.391,27.832,31.250,28.320,37.109,0
17522.907,15.625,28.809,29.785,34.668,66.895,0
17522.911,14.160,21.973,20.020,36.133,62.988,0
17522.915,19.043,17.578,19.531,31.738,89.844,0
17522.919,24.414,25.879,28.320,27.832,70.801,0
17522.922,24.902,32.227,29.297,30.273,7.812,0
17522.926,25.391,29.785,24.414,41.992,2.441,0
17522.930,23.926,23.438,23.926,48.828,27.832,0
17522.934,31.250,26.367,26.855,32.227,18.555,0
17522.938,31.250,28.320,27.832,26.855,-2.930,0
17522.942,9.766,22.949,24.902,28.320,39.551,0
17522.946,20.020,20.020,20.996,26.367,31.738,0
17522.950,27.832,20.996,25.879,28.320,-9.766,0
17522.954,24.902,28.320,33.691,37.109,-24.902,0
17522.958,19.531,28.809,28.320,40.039,-6.836,0
17522.962,29.297,22.461,20.508,42.480,41.992,0
17522.965,46.387,22.949,22.461,31.250,36.621,0
17522.969,33.691,24.414,28.809,19.043,18.555,0
17522.973,25.391,20.508,30.762,28.809,1.953,2
17522.977,29.297,23.926,27.832,24.414,-6.836,0
17522.981,32.715,24.414,25.879,36.133,10.254,0
17522.985,20.996,26.367,32.227,45.410,10.254,0
17522.989,19.531,30.273,30.273,30.762,56.152,0
17522.993,30.762,29.297,19.531,27.344,80.566,0
17522.997,31.738,26.367,16.113,27.832,83.984,0
17523.001,21.973,29.297,24.414,31.250,27.344,0
17523.005,3.906,31.250,31.250,29.297,8.301,0
17523.008,6.836,26.855,26.855,23.926,50.293,0
17523.012,20.996,23.438,20.996,24.902,40.039,0
17523.016,18.066,25.391,23.926,25.879,66.406,0
17523.020,3.418,25.391,28.809,25.391,37.109,0
17523.024,9.766,23.926,28.809,28.320,3.906,0
17523.028,30.762,26.855,24.414,28.320,6.836,0
17523.032,24.414,29.297,22.949,20.996,27.344,0
17523.036,13.184,31.250,32.715,25.391,27.344,0
17523.040,22.949,27.832,32.715,43.457,25.391,0
17523.044,37.598,22.949,23.438,32.715,26.367,0
17523.047,38.574,25.879,20.508,25.879,37.598,0
17523.051,30.273,31.250,25.391,31.738,-18.555,0
17523.055,37.109,32.715,25.879,28.809,-49.805,0
17523.059,40.527,29.785,19.043,28.320,28.320,0
17523.063,25.879,25.879,12.695,32.227,50.293,0
17523.067,20.996,28.809,21.484,34.180,23.438,0
17523.071,22.461,31.250,27.832,31.738,-14.648,0
17523.075,22.461,28.809,22.949,31.738,19.043,0
17523.079,28.320,21.973,17.578,28.809,57.129,0
17523.083,34.668,20.508,22.949,28.809,64.941,0
17523.087,21.484,26.855,34.180,33.203,43.457,0
17523.090,20.020,27.344,32.715,35.156,15.137,0
17523.094,33.203,27.344,26.367,34.180,28.320,0
17523.098,25.391,29.297,22.461,26.855,39.062,0
17523.102,12.695,32.715,28.320,25.391,0.977,0
17523.106,15.625,33.203,33.691,31.250,20.020,0
17523.110,31.738,28.320,27.832,25.879,68.359,0
17523.114,32.227,22.949,21.484,24.902,70.312,0
17523.118,33.203,27.832,29.297,35.645,87.891,0
17523.122,30.273,30.762,30.762,32.715,60.547,0
17523.126,19.043,26.367,22.461,16.602,34.668,0
17523.130,26.367,23.438,20.996,31.738,26.855,0
17523.133,27.344,24.414,27.344,47.363,41.504,0
17523.137,17.090,24.414,29.785,34.668,48.828,0
17523.141,30.762,22.949,25.879,27.832,36.621,0
17523.145,30.762,25.391,22.461,31.738,68.848,0
17523.149,20.020,24.902,22.949,29.785,76.172,0
17523.153,12.695,26.367,29.297,26.855,-15.137,0
17523.157,11.719,27.344,28.809,24.414,-31.250,0
17523.161,32.715,22.949,22.949,34.668,25.879,0
17523.165,35.645,25.391,20.996,41.504,74.219,0
17523.169,18.066,31.250,29.297,32.715,67.871,0
17523.172,20.508,32.715,28.809,31.738,41.016,0
17523.176,27.832,27.832,19.531,29.785,35.645,0
17523.180,37.109,21.973,17.578,34.180,22.949,0
17523.184,30.273,27.344,24.414,31.738,11.719,0
17523.188,18.555,26.855,30.273,20.508,22.949,0
17523.192,19.531,17.090,26.855,21.973,-19.043,0
17523.196,25.391,19.531,20.508,31.738,12.207,0
17523.200,18.066,24.902,24.902,29.297,49.805,0
17523.204,15.625,26.855,29.297,17.090,-9.277,0
17523.208,23.438,27.344,23.926,8.301,9.277,0
17523.212,28.320,22.949,18.066,9.277,28.320,0
17523.215,25.391,19.043,22.461,14.160,16.602,0
17523.219,2.441,22.949,27.832,11.230,40.527,0
17523.223,1.953,25.391,29.785,14.648,25.879,0
17523.227,24.414,21.973,27.832,30.762,15.625,0
17523.231,30.762,18.555,25.391,41.504,92.285,0
17523.235,9.277,24.902,29.785,35.645,83.984,0
17523.239,-2.441,27.832,28.809,22.461,58.105,0
17523.243,21.484,16.602,26.367,24.902,84.961,0
17523.247,34.668,11.719,24.414,30.273,67.871,0
17523.251,12.695,23.926,26.367,23.438,15.625,0
17523.255,9.277,33.203,25.879,17.090,40.039,0
17523.258,14.160,28.809,20.508,26.367,71.777,0
17523.262,21.973,26.855,19.531,28.809,48.828,0
17523.266,23.438,30.762,24.414,30.273,64.453,0
17523.270,17.578,30.273,28.320,35.645,77.637,0
17523.274,33.691,26.367,25.391,26.367,91.309,0
17523.278,31.738,20.996,20.508,27.344,95.215,0
17523.282,18.066,19.043,20.996,38.574,67.383,0
17523.286,13.672,23.438,29.297,36.621,39.551,0
17523.290,27.344,24.414,28.320,33.203,23.438,0
17523.294,31.250,22.949,20.996,38.574,28.320,0
17523.297,33.691,23.926,18.555,27.344,23.438,0
17523.301,29.297,26.367,22.949,6.836,36.621,0
17523.305,19.043,25.879,25.391,22.949,20.996,0
17523.309,17.090,23.438,20.508,37.109,-64.941,0
17523.313,25.391,19.043,16.113,31.738,-12.207,0
17523.317,21.484,23.438,20.996,30.762,58.594,0
17523.321,10.254,26.855,23.926,33.203,27.832,0
17523.325,20.020,26.367,20.996,32.227,-7.812,0
17523.329,26.367,25.391,19.531,28.320,-19.531,0
17523.333,19.043,24.414,25.391,30.273,-8.789,0
17523.337,17.090,30.273,29.297,42.480,27.344,0
17523.340,24.902,28.320,25.391,47.852,18.555,0
17523.344,28.320,27.344,23.926,30.762,65.918,0
17523.348,29.297,26.367,21.973,23.438,81.543,0
17523.352,16.113,25.391,25.391,24.902,12.207,0
17523.356,9.766,23.926,28.320,25.391,13.184,0
17523.360,23.438,19.043,25.879,24.414,31.738,0
17523.364,30.273,19.531,23.438,21.484,50.293,0
17523.368,17.578,27.344,26.855,21.973,65.918,0
17523.372,8.789,26.367,26.855,26.855,12.207,0
17523.376,18.555,19.043,23.926,35.156,-20.508,0
17523.380,31.738,19.531,20.996,34.180,40.039,0
17523.383,19.531,25.879,23.438,15.137,91.309,0
17523.387,19.531,28.809,31.738,7.812,64.453,0
17523.391,22.949,25.391,26.855,17.578,16.602,0
17523.395,13.184,21.484,20.996,22.949,8.789,0
17523.399,1.953,25.391,21.973,11.719,-11.719,0
17523.403,1.953,34.180,27.344,6.836,-27.832,0
17523.407,13.672,30.273,28.809,16.602,-18.555,0
17523.411,31.738,26.855,25.879,22.461,-6.348,0
17523.415,29.785,25.879,22.461,24.902,42.969,0
17523.419,11.719,24.414,26.367,23.438,61.523,0
17523.422,15.137,28.320,29.785,25.879,1.953,0
17523.426,20.996,30.762,27.832,23.438,18.066,0
17523.430,17.090,27.344,24.902,19.043,33.203,0
17523.434,-3.418,25.391,27.832,24.414,-13.672,0
17523.438,-2.930,26.367,30.762,34.180,23.438,0
17523.442,14.648,28.809,27.344,33.691,14.160,0
17523.446,39.551,28.320,24.902,24.902,3.418,0
17523.450,34.668,28.320,28.320,28.809,56.152,0
17523.454,17.090,31.250,34.180,28.320,18.066,0
17523.458,27.832,28.320,30.273,23.438,-8.301,0
17523.462,32.715,20.020,24.902,18.555,53.223,0
17523.465,26.855,22.461,28.320,19.043,71.289,0
17523.469,15.625,30.273,32.227,28.320,-7.324,0
17523.473,23.438,30.762,27.832,39.062,-7.324,0
17523.477,20.020,26.367,24.902,39.551,40.527,0
17523.481,14.648,22.949,23.438,25.879,98.145,0
17523.485,16.113,32.227,27.344,23.926,119.141,0
17523.489,11.719,33.691,29.297,31.250,72.266,0
17523.493,14.648,25.879,22.949,16.602,71.289,0
17523.497,25.879,23.926,19.531,20.508,29.785,1
17523.501,16.113,24.414,25.391,23.438,-5.859,0
17523.505,5.371,23.438,28.809,7.812,24.902,0
17523.508,27.832,24.414,25.391,9.277,24.414,0
17523.512,31.250,20.508,20.996,18.066,-12.695,0
17523.516,17.578,19.531,23.926,28.320,24.414,0
17523.520,13.184,24.902,32.227,23.438,53.223,0
17523.524,9.766,25.879,28.809,16.113,17.090,0
17523.528,11.230,22.461,23.438,20.508,45.898,0
17523.532,17.578,21.973,22.949,19.531,51.758,0
17523.536,6.836,27.832,23.926,14.648,53.711,0
17523.540,20.508,24.414,24.902,24.902,51.758,0
17523.544,37.109,19.043,22.461,36.621,44.434,0
17523.547,31.738,22.461,21.484,36.133,16.113,0
17523.551,20.508,25.391,28.809,15.137,3.906,0
17523.555,8.789,23.926,29.785,19.531,-1.465,0
17523.559,23.438,20.508,26.367,32.715,1.953,0
17523.563,27.832,20.508,20.508,18.066,74.707,0
17523.567,9.766,27.344,24.414,21.484,40.039,0
17523.571,10.254,32.227,29.297,22.461,17.090,0
17523.575,25.391,29.785,25.879,18.066,39.062,0
17523.579,31.738,28.809,21.973,20.996,69.336,0
17523.583,22.949,32.227,22.949,37.598,44.434,0
17523.587,17.578,33.203,27.344,29.297,19.531,0
17523.590,18.555,28.320,27.832,7.812,1.465,0
17523.594,15.625,23.438,26.367,24.902,16.113,0
17523.598,16.113,23.926,28.809,37.109,29.297,0
17523.602,12.695,23.926,34.180,32.227,11.719,0
17523.606,26.367,20.996,32.715,28.320,4.395,0
17523.610,43.945,26.855,26.367,29.297,3.418,0
17523.614,36.621,30.762,20.508,35.156,39.551,0
17523.618,21.973,28.809,30.273,48.828,66.406,0
17523.622,19.043,30.762,37.109,31.738,22.949,0
17523.626,19.531,33.203,33.203,20.508,47.852,0
17523.630,30.273,26.855,30.273,31.738,94.238,0
17523.633,31.250,23.438,33.203,28.320,63.477,0
17523.637,23.926,28.809,37.109,33.203,41.016,0
17523.641,38.086,27.344,31.738,34.180,49.316,0
17523.645,40.527,23.926,28.320,34.668,62.988,0
17523.649,15.137,17.090,31.738,28.320,73.730,0
17523.653,2.441,20.508,36.133,27.832,24.414,0
17523.657,17.578,28.809,33.691,43.457,-27.344,0
17523.661,31.250,24.902,26.855,43.457,-9.766,0
17523.665,31.250,22.461,26.855,37.598,17.090,0
17523.669,22.949,28.320,31.738,38.086,24.902,0
17523.672,25.391,29.785,32.715,43.945,-9.277,0
17523.676,33.203,30.762,30.273,36.133,-31.250,0
17523.680,40.527,30.762,24.414,36.621,17.578,0
17523.684,25.879,29.785,29.297,36.621,49.805,0
17523.688,15.137,27.832,34.180,32.227,24.414,0
17523.692,28.320,27.832,34.668,39.551,16.113,0
17523.696,38.574,27.832,32.715,36.621,37.598,0
17523.700,33.691,32.715,32.227,30.273,-7.324,0
17523.704,29.297,38.574,38.574,46.387,-3.418,0
17523.708,33.691,33.203,35.156,41.992,42.969,0
17523.712,35.645,25.391,23.438,26.855,58.594,0
17523.715,31.250,28.809,24.414,34.180,35.645,0
17523.719,17.578,34.668,33.691,44.922,-8.789,0
17523.723,31.250,33.691,34.180,48.828,-0.488,0
17523.727,42.480,32.227,27.832,42.480,62.012,0
17523.731,39.551,25.391,24.414,41.992,113.281,0
17523.735,43.457,25.391,29.297,30.273,86.914,0
17523.739,36.133,32.715,31.738,30.762,43.457,0
17523.743,26.367,33.691,28.809,35.156,12.695,0
17523.747,28.320,32.715,23.438,30.273,29.785,0
17523.751,30.762,38.086,31.250,41.992,-13.672,0
17523.755,28.320,41.016,37.109,26.367,1.953,0
17523.758,27.832,36.133,31.738,23.926,35.645,0
17523.762,22.461,34.180,27.344,41.992,12.207,0
17523.766,26.855,37.109,30.762,30.762,57.129,0
17523.770,29.785,37.598,35.156,19.043,16.602,0
17523.774,13.672,33.691,30.762,17.090,-29.785,0
17523.778,15.137,23.926,27.344,22.461,16.602,0
17523.782,21.973,22.949,30.273,31.250,38.574,0
17523.786,16.113,33.203,37.109,30.273,19.531,0
17523.790,12.207,34.668,35.645,26.855,7.812,0
17523.794,27.344,28.809,31.250,29.785,34.180,0
17523.797,33.691,28.320,29.785,23.438,44.922,0
17523.801,16.602,31.250,33.691,27.344,-24.414,0
17523.805,-1.953,29.297,35.645,34.668,19.531,0
17523.809,9.766,29.785,31.738,30.762,81.543,0
17523.813,27.832,29.297,27.832,34.668,-4.883,0
17523.817,13.184,27.832,30.762,34.668,-19.043,0
17523.821,11.230,26.855,28.809,21.484,29.785,0
17523.825,26.367,24.902,23.926,20.508,24.414,0
17523.829,30.273,23.926,24.414,24.414,67.871,0
17523.833,19.531,21.973,25.879,38.086,32.227,0
17523.837,9.766,25.391,26.855,29.297,14.648,0
17523.840,20.996,29.297,26.855,17.578,84.961,0
17523.844,41.992,32.227,29.297,41.504,45.898,0
17523.848,41.504,28.809,25.391,26.855,8.789,0
17523.852,17.578,23.438,17.578,13.184,24.902,0
17523.856,10.742,24.414,17.578,28.320,3.418,0
17523.860,13.184,24.902,21.484,27.832,-20.020,0
17523.864,17.578,30.762,25.879,36.621,7.324,0
17523.868,23.926,34.180,25.391,40.039,82.520,0
17523.872,27.344,26.855,21.973,26.367,73.242,0
17523.876,20.020,24.414,21.973,29.297,68.359,0
17523.880,14.648,27.832,25.879,44.922,66.895,0
17523.883,34.668,28.320,26.855,46.387,-1.953,0
17523.887,40.039,27.832,20.020,32.227,19.531,0
17523.891,25.879,26.855,17.578,25.879,45.410,0
17523.895,25.879,30.762,20.996,32.227,41.504,0
17523.899,41.016,35.156,27.344,37.109,29.785,0
17523.903,42.480,33.691,27.344,45.410,25.879,0
17523.907,28.320,29.785,25.391,33.691,72.266,0
17523.911,30.762,33.203,27.832,24.902,68.848,0
17523.915,21.973,37.109,31.250,40.527,63.965,0
17523.919,13.672,31.250,26.367,37.598,78.613,0
17523.922,25.879,30.273,20.996,34.180,67.871,0
17523.926,37.598,32.715,29.297,42.969,35.156,0
17523.930,42.480,33.203,36.621,46.875,24.902,0
17523.934,37.598,32.715,29.785,37.109,45.410,0
17523.938,42.969,29.785,25.391,23.926,22.461,0
17523.942,50.293,31.250,25.391,29.297,17.090,0
17523.946,31.738,31.738,29.785,48.340,27.344,0
17523.950,22.461,27.344,33.691,47.852,32.715,0
17523.954,22.949,23.438,28.809,33.691,10.254,0
17523.958,37.109,26.855,27.344,33.203,11.719,0
17523.962,28.320,32.715,30.762,37.598,17.090,0
17523.965,18.066,33.691,33.691,29.785,10.254,0
17523.969,30.762,23.926,30.273,25.391,47.852,0
17523.973,27.832,18.066,27.344,34.668,68.359,0
17523.977,25.879,21.484,28.320,31.738,20.508,0
17523.981,23.438,27.344,29.785,18.066,-7.324,0
17523.985,26.367,27.832,28.809,20.508,-13.672,0
17523.989,23.438,25.391,25.879,23.926,32.715,0
17523.993,9.766,23.926,25.879,29.297,59.570,0
17523.997,16.113,23.926,29.297,33.691,10.254,0
17524.001,15.137,21.484,28.320,22.461,-8.789,0
17524.005,28.320,19.531,22.949,20.996,69.824,0
17524.008,35.156,22.949,24.414,34.668,98.145,0
17524.012,21.484,27.344,28.320,22.461,39.551,0
17524.016,30.762,27.344,26.367,8.301,-3.418,0
17524.020,27.344,21.973,21.484,19.531,-16.113,0
17524.024,18.066,21.973,23.926,28.320,-4.883,0
17524.028,31.250,26.367,25.879,37.598,43.457,0
17524.032,29.785,27.344,26.367,46.387,67.871,0
17524.036,19.043,26.367,22.461,23.926,20.996,0
17524.040,18.066,27.344,19.043,12.695,5.859,0
17524.044,28.320,30.762,19.531,20.996,34.668,0
17524.047,31.250,32.227,20.508,29.297,-31.250,0
17524.051,29.785,30.762,23.438,23.926,2.441,0
17524.055,24.414,31.250,21.484,29.785,32.715,0
17524.059,28.320,33.203,19.531,43.457,8.301,0
17524.063,43.945,35.156,21.973,34.668,60.059,0
17524.067,35.645,34.668,22.949,24.902,78.125,0
17524.071,19.531,30.762,22.461,16.602,49.316,0
17524.075,26.367,28.320,21.484,25.879,36.621,0
17524.079,24.902,30.762,26.367,42.969,28.809,0
17524.083,13.184,32.715,30.273,46.387,11.230,0
17524.087,20.996,28.809,24.902,34.180,68.359,0
17524.090,25.879,22.949,20.996,28.320,42.480,0
17524.094,29.785,28.809,21.973,34.180,-35.645,0
17524.098,29.297,39.062,24.414,34.180,-8.301,0
17524.102,22.949,35.156,20.508,25.391,35.645,0
17524.106,19.531,28.320,18.555,28.320,17.090,0
17524.110,30.762,32.227,20.020,28.320,4.395,0
17524.114,30.273,37.598,20.508,36.621,0.000,0
17524.118,11.719,32.715,19.043,37.109,43.945,0
17524.122,16.113,26.855,19.043,33.203,52.734,0
17524.126,24.414,27.344,22.461,43.945,-3.418,0
17524.130,24.902,30.273,24.902,31.738,53.223,0
17524.133,34.180,32.715,22.461,27.832,33.203,0
17524.137,28.809,26.855,19.043,37.109,1.953,0
17524.141,17.090,24.414,18.555,29.297,46.387,0
17524.145,13.184,31.250,20.508,31.738,-8.789,0
17524.149,10.742,35.156,25.879,35.645,-28.809,0
17524.153,30.273,30.273,23.438,31.250,-13.184,0
17524.157,36.621,26.367,19.043,31.738,45.898,0
17524.161,21.973,37.109,24.902,29.297,81.543,0
17524.165,25.391,39.062,36.621,41.992,47.852,0
17524.169,25.391,26.367,28.320,32.715,34.668,0
17524.172,21.973,23.438,19.531,27.344,41.504,2
17524.176,22.949,26.855,25.391,37.598,98.145,0
17524.180,18.066,28.809,28.809,41.016,63.965,0
17524.184,24.902,27.344,29.297,41.992,11.719,0
17524.188,33.691,23.438,26.367,42.969,-7.324,0
17524.192,7.812,16.113,23.926,38.086,2.930,0
17524.196,4.883,18.066,25.391,20.508,13.672,0
17524.200,31.250,28.809,22.949,22.461,30.762,0
17524.204,27.832,28.320,19.531,23.926,67.383,0
17524.208,30.762,25.879,23.438,27.344,53.711,0
17524.212,23.438,30.273,28.320,34.180,17.578,0
17524.215,15.625,29.297,27.344,30.762,-2.441,0
17524.219,26.367,21.973,24.414,43.457,4.395,0
17524.223,33.691,20.508,21.484,47.363,39.551,0
17524.227,27.344,25.391,24.902,35.645,49.805,0
17524.231,7.812,21.484,27.344,35.645,43.457,0
17524.235,24.902,20.020,26.855,31.738,86.914,0
17524.239,25.879,24.414,22.949,36.133,79.590,0
17524.243,12.207,29.785,21.484,38.574,-5.371,0
17524.247,31.738,33.691,26.367,36.621,-12.695,0
17524.251,41.016,31.738,25.879,38.574,12.207,0
17524.255,25.391,25.879,23.926,33.691,-16.113,0
17524.258,13.672,26.367,23.926,28.320,-19.043,0
17524.262,22.949,34.180,22.949,31.738,-36.621,0
17524.266,31.250,30.762,23.438,33.691,5.371,0
17524.270,29.785,24.902,23.438,31.738,15.625,0
17524.274,25.879,32.715,23.438,17.578,-35.156,0
17524.278,21.484,33.691,26.367,7.324,26.855,0
17524.282,30.762,31.250,27.832,35.156,52.734,0
17524.286,34.180,31.738,25.391,43.457,13.672,0
17524.290,21.973,29.785,23.926,22.949,25.879,0
17524.294,26.855,29.297,26.855,29.297,10.254,0
17524.297,40.527,33.203,29.785,33.691,-32.715,0
17524.301,40.039,33.203,25.879,27.344,-21.484,0
17524.305,33.691,26.855,24.902,42.969,0.977,0
17524.309,21.973,30.762,30.762,50.781,36.621,0
17524.313,17.578,35.645,33.203,38.086,40.039,0
17524.317,25.391,25.391,29.785,35.156,26.367,0
17524.321,22.949,22.461,21.973,26.367,41.992,0
17524.325,23.438,27.832,21.973,27.832,49.805,0
17524.329,25.879,31.738,27.344,35.645,13.184,0
17524.333,29.297,29.785,30.273,28.809,20.020,0
17524.337,27.344,23.926,26.855,31.738,78.125,0
17524.340,26.855,22.949,26.367,41.504,52.246,0
17524.344,39.062,28.809,28.320,42.969,22.461,0
17524.348,33.691,31.738,25.879,35.156,23.438,0
17524.352,22.949,24.414,22.461,32.227,44.434,0
17524.356,20.508,19.043,23.438,30.273,58.594,0
17524.360,36.133,20.508,29.297,41.992,71.289,0
17524.364,44.434,20.508,30.762,33.691,99.609,0
17524.368,35.156,21.484,24.414,9.277,68.359,0
17524.372,20.996,23.438,17.090,13.184,44.434,0
17524.376,9.277,22.949,18.066,22.461,47.363,0
17524.380,17.090,25.391,24.414,34.180,36.133,0
17524.383,20.996,27.832,28.320,36.621,62.012,0
17524.387,33.203,25.879,26.367,36.133,50.781,0
17524.391,36.621,25.879,20.508,32.227,4.883,0
17524.395,40.039,28.809,22.949,22.949,27.344,0
17524.399,46.875,27.832,26.855,36.621,46.387,0
17524.403,35.156,21.484,22.949,39.551,49.316,0
17524.407,20.020,18.555,25.879,30.273,37.109,0
17524.411,12.207,25.391,25.879,24.902,20.020,0
17524.415,4.883,28.809,22.949,19.531,-5.371,0
17524.419,2.930,20.508,23.438,22.461,23.926,0
17524.422,24.902,21.973,20.996,20.508,42.480,0
17524.426,34.668,31.250,23.926,25.879,25.391,0
17524.430,32.715,32.227,29.785,28.809,44.922,0
17524.434,32.715,28.320,26.367,27.832,59.082,0
17524.438,30.762,24.414,21.484,45.410,54.199,0
17524.442,22.949,24.414,23.926,38.574,7.812,0
17524.446,17.578,32.715,23.926,15.625,0.000,0
17524.450,26.855,36.133,23.438,20.508,18.555,0
17524.454,33.691,34.180,24.414,26.855,40.527,0
17524.458,31.738,36.133,24.902,21.973,30.273,0
17524.462,30.762,39.062,27.344,24.902,-42.480,0
17524.465,33.691,34.668,29.785,37.109,-17.578,0
17524.469,38.086,27.832,25.391,46.875,48.828,0
17524.473,35.156,22.949,19.043,30.762,44.434,0
17524.477,26.855,24.414,24.414,17.578,32.715,0
17524.481,33.203,29.297,32.227,33.203,10.254,0
17524.485,30.762,27.832,30.273,36.621,-16.113,0
17524.489,13.184,21.484,21.484,31.250,24.414,0
17524.493,18.066,23.438,23.438,29.785,52.734,0
17524.497,23.926,29.785,30.273,38.086,10.254,0
17524.501,22.949,23.926,28.809,39.062,41.504,0
17524.505,21.484,20.508,24.902,32.715,48.828,0
17524.508,33.203,27.344,25.391,30.762,53.223,0
17524.512,29.297,28.809,29.785,27.344,117.188,0
17524.516,14.648,26.367,33.691,30.762,59.570,0
17524.520,24.902,23.926,27.832,25.879,20.020,0
17524.524,39.062,23.438,20.996,26.367,44.922,0
17524.528,34.180,27.344,23.926,30.762,-5.371,0
17524.532,20.508,32.227,28.809,24.414,-8.301,0
17524.536,36.133,31.250,26.367,28.809,12.207,0
17524.540,41.016,30.273,20.020,25.391,30.762,0
17524.544,35.156,33.203,24.902,35.645,62.012,0
17524.547,37.109,32.715,31.738,67.871,35.156,0
17524.551,34.180,31.250,27.344,55.664,12.207,0
17524.555,38.086,28.320,23.926,30.273,1.953,0
17524.559,30.762,32.715,24.902,36.133,-14.160,0
17524.563,38.086,34.668,26.855,34.180,-0.488,0
17524.567,33.203,28.809,26.367,31.250,37.598,0
17524.571,10.254,23.926,19.531,30.762,28.320,0
17524.575,15.137,22.461,16.113,34.668,-7.812,0
17524.579,8.301,29.785,21.973,44.922,0.000,0
17524.583,11.719,35.156,20.996,28.320,-14.160,0
17524.587,31.250,31.250,14.160,11.230,42.969,0
17524.590,19.043,28.809,16.602,21.484,129.395,0
17524.594,12.207,30.273,21.484,39.062,102.539,0
17524.598,18.555,31.250,23.438,45.898,20.508,0
17524.602,22.949,31.250,20.508,36.621,-7.324,0
17524.606,26.367,27.832,20.508,36.621,42.969,0
17524.610,24.902,27.832,26.367,45.898,14.648,0
17524.614,33.691,36.133,29.297,54.199,5.859,0
17524.618,31.738,33.203,25.391,57.617,60.059,0
17524.622,32.227,27.344,24.414,46.875,23.438,0
17524.626,40.039,24.902,27.832,52.246,18.066,0
17524.630,34.668,28.320,29.785,46.387,27.344,0
17524.633,40.527,32.227,27.832,31.250,29.297,0
17524.637,37.109,31.250,21.484,33.203,53.711,0
17524.641,35.156,34.180,24.902,32.227,52.734,0
17524.645,35.645,37.109,31.250,25.879,33.203,0
17524.649,38.086,34.180,28.320,22.461,-2.441,0
17524.653,38.574,27.344,20.996,18.555,36.621,0
17524.657,23.926,25.391,22.461,17.578,77.148,0
17524.661,31.738,28.809,28.809,26.367,70.312,0
17524.665,37.109,35.156,33.691,33.203,27.344,0
17524.669,35.156,34.668,27.344,32.715,25.391,0
17524.672,41.504,28.809,23.438,22.949,35.156,0
17524.676,38.574,29.297,29.297,40.039,10.254,0
17524.680,27.344,29.297,34.180,51.758,46.875,0
17524.684,31.250,22.949,28.320,34.668,72.754,0
17524.688,35.645,21.484,22.949,28.809,7.324,0
17524.692,28.320,27.832,25.879,33.203,-5.371,0
17524.696,26.367,31.738,30.762,34.668,29.785,0
17524.700,34.668,31.738,29.785,33.691,19.043,0
17524.704,34.668,26.855,22.949,26.855,-16.113,0
17524.708,23.438,25.879,25.391,23.438,-11.719,0
17524.712,17.578,28.320,33.203,29.297,-4.395,0
17524.715,15.137,25.879,34.668,30.273,-10.254,0
17524.719,22.949,22.949,28.320,25.391,44.922,0
17524.723,34.668,20.508,24.902,32.227,77.637,0
17524.727,30.273,19.043,28.320,34.668,55.664,0
17524.731,18.555,23.438,32.227,31.738,48.828,0
17524.735,17.090,22.461,29.297,36.621,73.242,0
17524.739,26.855,19.531,26.367,25.391,-8.301,0
17524.743,35.645,24.414,29.785,15.625,-8.789,0
17524.747,19.531,25.391,33.691,28.809,20.996,0
17524.751,6.348,19.043,27.832,35.645,0.000,0
17524.755,18.066,16.113,22.461,29.785,19.043,0
17524.758,15.625,23.438,25.391,28.320,24.902,0
17524.762,3.418,30.273,33.691,41.992,8.789,0
17524.766,0.488,28.320,33.691,37.109,12.695,0
17524.770,2.441,20.020,22.949,7.812,47.363,0
17524.774,15.625,18.555,23.926,0.000,10.742,0
17524.778,17.578,25.391,29.785,14.160,-58.594,0
17524.782,4.883,28.320,32.715,26.367,2.930,0
17524.786,23.926,20.508,31.738,28.809,31.738,0
17524.790,27.344,17.578,26.855,15.137,-14.648,0
17524.794,14.648,23.926,29.297,15.625,12.207,0
17524.797,32.227,24.902,35.645,32.715,59.082,0
17524.801,34.180,22.461,29.785,33.691,41.504,0
17524.805,43.457,20.508,22.461,37.598,44.922,1
17524.809,60.059,23.926,24.902,47.852,104.004,0
17524.813,28.809,29.297,31.738,45.410,110.840,0
17524.817,10.254,26.855,28.809,37.109,46.875,0
17524.821,22.949,22.949,23.926,38.086,41.016,0
17524.825,28.320,26.855,28.809,35.645,54.199,0
17524.829,24.902,32.715,31.738,30.273,46.875,0
17524.833,24.414,28.320,31.738,30.273,12.207,0
17524.837,26.855,24.414,23.438,29.785,-11.230,0
17524.840,20.020,23.438,22.461,23.926,53.223,0
17524.844,27.832,28.809,30.762,29.297,53.711,0
17524.848,25.391,33.203,29.297,41.992,18.066,0
17524.852,23.926,26.855,23.926,36.621,48.828,0
17524.856,32.227,24.902,20.508,24.414,39.551,0
17524.860,27.832,28.320,20.996,18.066,21.484,0
17524.864,22.461,29.297,26.367,19.043,15.625,0
17524.868,21.484,24.902,28.320,24.414,19.043,0
17524.872,17.090,18.066,20.020,20.996,18.066,0
17524.876,17.578,20.508,22.949,28.809,29.785,0
17524.880,20.020,28.320,30.273,41.016,54.199,0
17524.883,29.785,30.762,27.832,33.203,34.180,0
17524.887,27.344,29.297,26.855,33.203,6.348,0
17524.891,17.578,27.832,28.809,29.297,7.812,0
17524.895,26.367,32.715,29.297,29.785,33.203,0
17524.899,25.879,32.227,29.785,30.273,29.297,0
17524.903,24.902,27.344,24.902,15.625,46.875,0
17524.907,33.203,26.367,18.555,18.066,25.391,0
17524.911,32.227,27.344,23.926,25.879,19.043,0
17524.915,21.973,30.762,28.320,31.738,10.254,0
17524.919,20.508,24.902,22.949,35.645,14.160,0
17524.922,29.785,22.949,19.531,34.668,71.777,0
17524.926,25.391,26.855,21.973,33.691,61.035,0
17524.930,8.301,27.832,27.344,33.203,50.781,0
17524.934,16.113,28.320,21.484,13.184,30.273,0
17524.938,25.879,27.832,16.602,11.230,2.441,0
17524.942,31.738,34.180,27.832,40.039,24.902,0
17524.946,35.645,32.227,28.809,36.133,46.387,0
17524.950,17.090,22.949,20.996,14.160,55.664,0
17524.954,10.742,17.578,20.508,13.672,35.156,0
17524.958,20.020,18.066,21.973,21.484,0.000,0
17524.962,23.438,23.438,26.855,26.855,28.320,0
17524.965,34.180,28.809,30.762,25.391,36.133,0
17524.969,27.344,22.949,23.926,26.855,34.668,0
17524.973,19.043,20.508,20.020,13.672,29.785,0
17524.977,18.066,24.902,22.461,12.695,37.109,0
17524.981,11.230,26.367,29.297,28.320,51.758,0
17524.985,11.230,28.320,26.855,26.367,87.891,0
17524.989,13.672,28.320,20.508,24.414,71.289,0
17524.993,22.461,25.879,22.461,19.043,72.266,0
17524.997,25.879,29.785,27.344,21.484,20.996,0
17525.001,14.160,31.250,23.438,17.090,-11.719,0
17525.005,19.043,27.832,19.043,15.625,31.250,0
17525.008,18.555,25.879,22.949,24.414,11.230,0
17525.012,19.043,33.203,28.320,24.902,20.996,0
17525.016,24.902,35.645,30.273,25.879,41.504,0
17525.020,18.066,27.344,23.926,3.906,68.359,0
17525.024,17.578,25.879,23.438,8.301,64.941,0
17525.028,15.137,33.203,27.832,28.320,-3.906,0
17525.032,3.906,32.227,26.855,24.414,-41.016,0
17525.036,7.812,24.902,23.438,20.508,36.133,0
17525.040,13.184,27.344,21.973,16.602,57.129,0
17525.044,15.137,32.715,27.832,19.043,38.574,0
17525.047,17.090,30.762,32.715,18.555,35.645,0
17525.051,21.484,29.785,24.902,12.207,42.969,0
17525.055,24.902,24.414,21.973,20.996,48.340,0
17525.059,20.508,20.508,26.855,27.832,37.109,0
17525.063,21.973,30.273,31.738,26.855,97.656,0
17525.067,21.973,33.203,31.738,28.809,53.711,0
17525.071,16.113,28.320,25.391,20.508,62.500,0
17525.075,8.301,30.273,22.949,15.625,70.312,0
17525.079,9.277,33.691,28.320,20.020,39.062,0
17525.083,18.555,30.273,28.320,20.508,22.461,0
17525.087,20.996,22.461,24.902,28.809,-19.531,0
17525.090,13.184,20.996,24.902,36.133,9.277,0
17525.094,4.395,25.391,25.391,18.555,68.848,0
17525.098,19.043,30.762,30.762,20.020,45.410,0
17525.102,30.273,28.320,24.902,35.645,-11.230,0
17525.106,19.531,22.949,22.461,20.020,36.621,0
17525.110,22.949,25.879,27.344,6.836,54.688,0
17525.114,28.320,24.902,30.273,25.879,3.906,0
17525.118,14.648,16.113,28.809,23.438,22.461,0
17525.122,12.695,20.020,22.949,13.184,32.715,0
17525.126,20.020,31.738,25.879,13.672,16.113,0
17525.130,21.973,33.691,31.738,14.160,25.879,0
17525.133,24.902,26.367,25.879,15.137,37.109,0
17525.137,22.461,19.531,19.531,15.625,60.059,0
17525.141,23.926,19.531,25.391,23.926,43.945,0
17525.145,18.555,22.949,27.832,35.645,47.363,0
17525.149,15.625,23.926,30.273,39.551,6.836,0
17525.153,40.039,22.461,26.855,33.691,13.184,0
17525.157,41.016,22.949,20.996,31.738,73.730,0
17525.161,14.160,24.414,27.832,26.855,34.180,0
17525.165,10.742,25.879,30.762,25.879,10.254,0
17525.169,17.578,22.461,23.926,31.250,38.574,0
17525.172,25.879,21.484,20.996,20.996,73.242,0
17525.176,45.898,30.273,25.879,22.949,41.504,0
17525.180,42.480,32.227,32.227,36.621,-3.906,0
17525.184,34.180,26.367,28.809,41.504,27.344,0
17525.188,35.156,22.949,22.461,24.902,26.367,0
17525.192,21.484,20.020,22.949,25.879,55.664,0
17525.196,7.324,20.020,29.785,31.738,23.438,0
17525.200,14.648,24.414,33.203,29.297,2.930,0
17525.204,20.020,25.391,23.438,18.555,43.457,0
17525.208,22.461,24.414,19.043,10.742,55.664,0
17525.212,32.227,25.879,23.438,25.391,63.965,0
17525.215,30.273,28.809,26.855,23.438,31.738,0
17525.219,28.809,25.879,23.438,12.695,32.715,0
17525.223,29.297,24.902,22.949,28.809,33.203,0
17525.227,17.090,31.250,26.855,30.762,-3.418,0
17525.231,23.438,35.645,27.832,23.926,-40.527,0
17525.235,39.062,28.809,24.902,27.344,-33.203,0
17525.239,34.668,21.973,20.508,25.879,29.297,0
17525.243,24.902,26.855,24.902,34.180,63.965,0
17525.247,22.461,30.273,31.250,38.086,25.391,0
17525.251,23.438,25.879,27.344,36.133,-2.930,0
17525.255,40.039,20.020,23.438,26.855,30.762,0
17525.258,43.945,18.555,25.879,34.668,61.035,0
17525.262,21.973,27.344,31.250,34.668,75.195,0
17525.266,19.531,33.203,32.715,24.414,53.223,0
17525.270,37.109,27.832,26.367,33.691,32.227,0
17525.274,36.621,27.344,21.484,32.715,33.203,0
17525.278,28.809,31.738,23.438,32.227,40.527,0
17525.282,38.574,31.250,28.320,40.039,40.527,0
17525.286,41.016,28.320,26.855,45.898,37.598,0
17525.290,21.973,27.832,23.438,40.039,37.598,0
17525.294,12.207,31.250,25.879,27.344,46.875,0
17525.297,17.578,32.715,30.762,27.344,1.465,0
17525.301,23.438,29.785,22.461,29.297,-41.992,0
17525.305,32.227,28.320,15.625,20.996,41.992,0
17525.309,29.297,28.809,26.855,25.391,56.152,0
17525.313,26.367,33.203,33.203,36.133,22.461,0
17525.317,32.715,36.621,28.320,28.320,23.438,0
17525.321,14.648,31.250,22.949,24.902,38.574,0
17525.325,15.137,29.785,22.461,36.133,32.227,0
17525.329,36.621,33.691,26.367,33.691,41.504,0
17525.333,32.227,37.598,27.832,28.809,42.480,0
17525.337,26.855,31.250,22.949,20.996,9.766,0
17525.340,24.414,23.926,22.461,18.066,17.578,0
17525.344,12.207,29.785,30.762,21.484,54.199,0
17525.348,19.043,34.668,32.715,31.250,46.387,0
17525.352,34.180,28.809,26.367,35.156,40.527,0
17525.356,36.133,29.297,22.461,22.949,41.504,0
17525.360,28.320,37.598,23.926,18.066,6.348,0
17525.364,26.855,42.480,30.762,30.762,0.000,0
17525.368,30.273,35.156,24.902,23.926,-4.395,0
17525.372,30.762,28.809,18.555,6.348,60.547,0
17525.376,34.180,33.203,23.438,16.602,28.320,0
17525.380,26.367,35.156,30.273,35.645,0.977,0
17525.383,36.621,32.227,28.809,41.992,-16.602,0
17525.387,37.598,28.809,22.949,16.602,14.160,0
17525.391,32.715,33.203,20.020,4.883,-0.977,0
17525.395,44.434,39.062,20.996,23.438,-50.781,0
17525.399,32.715,37.598,24.414,27.344,34.180,0
17525.403,30.762,28.809,20.996,28.320,74.707,0
17525.407,31.738,22.461,20.020,29.785,99.121,0
17525.411,24.902,28.809,24.414,22.461,100.098,0
17525.415,21.973,37.598,27.344,22.949,-21.973,0
17525.419,24.414,36.133,22.461,23.438,-20.020,0
17525.422,16.113,28.320,20.020,17.090,39.551,0
17525.426,12.695,29.297,23.438,27.832,2.930,0
17525.430,15.625,33.203,27.832,29.297,7.324,0
17525.434,15.137,31.250,24.414,5.859,-9.766,0
17525.438,21.484,29.785,20.020,11.719,4.395,0
17525.442,25.391,33.691,23.926,24.414,59.570,0
17525.446,20.508,36.621,32.227,25.879,59.570,0
17525.450,21.973,35.156,27.344,27.832,39.062,0
17525.454,30.273,28.320,17.578,27.832,53.223,1
17525.458,35.156,26.855,20.508,28.320,58.594,0
17525.462,14.160,30.762,25.391,28.809,23.438,0
17525.465,12.207,23.926,24.902,39.551,10.254,0
17525.469,22.949,19.531,21.973,39.062,38.574,0
17525.473,15.625,25.391,21.484,32.715,38.086,0
17525.477,20.508,31.250,22.949,25.879,42.480,0
17525.481,23.926,31.250,25.879,26.367,65.918,0
17525.485,26.855,23.438,29.297,32.227,21.484,0
17525.489,24.414,20.996,25.391,17.090,42.969,0
17525.493,21.484,24.902,22.949,10.254,78.613,0
17525.497,11.719,24.902,30.762,21.973,21.973,0
17525.501,12.207,22.949,28.809,23.926,38.086,0
17525.505,18.555,23.926,22.461,27.344,50.293,0
17525.508,25.879,25.391,27.344,28.809,2.930,0
17525.512,31.738,23.438,31.738,21.973,5.859,0
17525.516,27.344,24.414,28.809,25.391,-4.883,0
17525.520,27.344,24.414,22.461,20.020,32.227,0
17525.524,21.484,23.438,24.902,12.207,33.691,0
17525.528,4.395,27.344,27.344,13.184,-3.418,0
17525.532,16.113,28.320,30.762,21.973,6.348,0
17525.536,21.973,22.949,24.902,23.438,1.465,0
17525.540,14.648,24.902,17.578,17.090,-4.395,0
17525.544,24.902,32.715,22.461,20.508,-9.766,0
17525.547,29.785,36.133,29.297,21.484,20.996,0
17525.551,23.926,27.832,25.391,7.812,26.855,0
17525.555,18.066,19.043,21.973,7.812,61.035,0
17525.559,23.438,22.949,25.391,21.973,83.496,0
17525.563,20.996,31.250,30.273,36.133,36.133,0
17525.567,16.113,29.785,28.320,25.391,18.066,0
17525.571,20.020,26.367,22.461,13.672,21.973,0
17525.575,26.367,27.832,24.902,27.344,-18.066,0
17525.579,28.809,34.180,29.785,43.945,-11.230,0
17525.583,18.555,37.598,31.738,34.668,50.293,0
17525.587,25.391,34.180,33.203,23.438,83.008,0
17525.590,28.809,33.203,30.762,26.855,61.035,0
17525.594,8.789,31.738,27.832,31.250,52.246,0
17525.598,0.488,28.809,31.738,36.133,46.875,0
17525.602,2.441,28.320,26.367,20.508,20.020,0
17525.606,14.648,33.203,20.508,19.531,3.418,0
17525.610,11.230,34.668,23.438,31.250,51.758,0
17525.614,13.672,39.062,28.809,31.738,80.566,0
17525.618,25.391,38.574,25.879,31.250,16.113,0
17525.622,23.926,28.809,15.625,33.203,-11.230,0
17525.626,13.184,26.367,15.625,28.809,57.129,0
17525.630,20.508,28.809,23.438,32.715,76.172,0
17525.633,36.133,23.438,24.414,29.785,6.348,0
17525.637,29.785,20.020,20.020,20.020,4.883,0
17525.641,18.066,23.926,19.043,23.438,61.035,0
17525.645,21.973,26.367,23.926,28.809,35.645,0
17525.649,23.438,26.367,28.320,30.273,29.785,0
17525.653,19.531,23.926,22.949,23.926,67.871,0
17525.657,23.438,22.949,20.508,10.742,30.762,0
17525.661,21.973,26.855,24.902,18.066,-6.836,0
17525.665,23.438,34.180,30.762,32.715,28.809,0
17525.669,33.691,32.715,28.809,32.227,103.516,0
17525.672,28.809,29.297,22.949,26.855,51.758,0
17525.676,14.648,29.297,24.414,36.133,22.949,0
17525.680,10.254,30.273,28.809,39.062,37.598,0
17525.684,18.066,26.855,25.879,37.598,43.945,0
17525.688,32.715,23.438,20.020,47.363,42.480,0
17525.692,25.879,23.438,20.996,36.621,30.273,0
17525.696,9.277,24.902,24.414,29.297,103.027,0
17525.700,16.113,28.320,23.926,34.668,79.102,0
17525.704,31.250,25.391,20.020,29.785,-13.672,0
17525.708,38.086,21.973,20.020,31.250,14.160,0
17525.712,43.945,30.273,24.414,37.598,20.508,0
17525.715,49.805,35.645,30.762,43.457,-14.160,0
17525.719,29.785,29.785,25.391,31.738,-5.859,0
17525.723,17.578,29.297,20.508,23.926,29.785,0
17525.727,27.832,34.668,28.809,36.133,15.625,0
17525.731,26.855,33.691,35.156,40.527,-16.113,0
17525.735,21.973,25.391,26.855,27.344,-8.789,0
17525.739,18.066,20.508,19.531,19.531,38.574,0
17525.743,13.672,22.461,25.391,27.832,67.871,0
17525.747,13.184,24.902,34.668,25.879,33.203,0
17525.751,10.742,22.461,29.785,19.043,32.227,0
17525.755,9.277,20.996,22.949,19.043,21.973,0
17525.758,6.348,18.555,25.879,14.160,34.668,0
17525.762,16.113,20.020,30.273,20.508,-5.371,0
17525.766,26.855,24.902,27.832,31.738,-4.395,0
17525.770,19.043,23.438,20.508,28.320,24.414,0
17525.774,10.254,24.902,17.578,24.902,-10.742,0
17525.778,17.090,27.344,21.973,19.043,34.180,0
17525.782,13.672,28.320,24.902,13.672,42.969,0
17525.786,17.090,26.367,19.043,20.020,20.996,0
17525.790,28.320,23.926,17.090,20.020,62.500,0
17525.794,25.879,25.879,20.508,25.391,84.961,0
17525.797,24.414,32.715,23.438,29.297,49.805,0
17525.801,31.250,33.203,20.020,30.762,-7.812,0
17525.805,23.926,29.297,11.719,21.484,13.184,0
17525.809,27.344,30.762,14.648,15.625,64.941,0
17525.813,26.855,34.180,22.949,34.180,5.859,0
17525.817,17.090,28.809,19.043,25.879,-14.160,0
17525.821,25.879,19.531,12.695,16.602,40.039,0
17525.825,25.879,22.461,19.531,25.879,44.434,0
17525.829,15.625,32.227,26.855,36.621,-45.898,0
17525.833,10.742,33.203,23.926,45.410,-50.781,0
17525.837,17.578,25.879,20.508,39.062,25.879,0
17525.840,20.020,24.902,20.996,28.320,10.254,0
17525.844,22.949,27.344,26.855,38.086,21.973,0
17525.848,24.414,30.762,32.715,37.598,78.125,0
17525.852,15.625,26.367,26.855,22.461,96.191,0
17525.856,10.742,20.508,22.461,20.996,82.520,0
17525.860,20.996,20.020,25.879,17.090,59.082,0
17525.864,26.367,27.344,31.250,20.020,56.641,0
17525.868,22.461,27.832,28.320,34.180,28.809,0
17525.872,19.531,22.949,23.926,36.621,2.441,0
17525.876,25.391,26.855,27.832,38.086,23.926,0
17525.880,26.855,32.227,30.762,44.434,70.312,0
17525.883,15.137,30.762,29.785,39.551,69.336,0
17525.887,16.602,24.414,25.879,20.996,46.387,0
17525.891,27.832,25.879,26.367,27.832,64.941,0
17525.895,40.039,30.273,29.785,40.039,38.574,0
17525.899,41.016,29.297,32.715,29.297,-12.207,0
17525.903,26.855,20.996,26.367,23.926,46.387,0
17525.907,21.973,20.020,22.461,34.668,46.387,0
17525.911,21.973,26.855,30.762,53.711,5.371,0
17525.915,18.066,28.320,35.645,54.688,54.199,0
17525.919,12.207,24.902,28.809,29.785,33.203,0
