timestamps,TP9,AF7,AF8,TP10,Right AUX,Marker0
17667.684,22.949,23.926,27.344,28.809,111.816,1
17667.688,23.438,21.484,22.461,27.832,71.289,0
17667.692,19.043,26.367,26.367,26.855,43.457,0
17667.696,20.508,25.391,32.715,27.344,31.250,0
17667.700,28.809,22.461,32.715,29.785,37.109,0
17667.704,34.668,27.344,26.855,22.949,16.602,0
17667.708,34.668,28.809,22.461,24.414,3.906,0
17667.712,25.879,29.785,24.414,34.180,-13.184,0
17667.715,27.344,29.297,26.367,34.180,-5.371,0
17667.719,23.438,24.414,20.996,18.555,69.336,0
17667.723,8.789,22.949,22.461,18.555,84.961,0
17667.727,9.277,26.367,27.832,22.461,4.395,0
17667.731,18.066,31.250,27.344,22.461,-0.977,0
17667.735,23.438,26.855,21.973,22.461,64.453,0
17667.739,22.949,29.297,20.996,25.391,75.684,0
17667.743,26.855,35.645,23.926,31.250,7.324,0
17667.747,24.414,34.180,21.973,25.879,16.113,0
17667.751,25.391,31.250,17.578,20.996,77.637,0
17667.754,33.691,29.785,15.137,18.555,78.613,0
17667.758,36.621,30.273,19.531,18.066,27.832,0
17667.762,39.551,32.715,26.367,29.297,26.367,0
17667.766,33.203,27.832,26.367,34.668,39.062,0
17667.770,30.762,25.879,23.926,30.273,36.133,0
17667.774,27.344,26.855,23.438,26.855,38.086,0
17667.778,24.902,24.902,27.344,33.203,16.602,0
17667.782,30.762,28.809,28.320,41.992,36.621,0
17667.786,29.297,32.227,27.344,32.715,-28.320,0
17667.790,23.926,30.762,28.809,29.785,-17.578,0
17667.794,24.414,28.809,23.926,31.250,47.852,0
17667.797,25.879,30.273,22.461,31.250,33.691,0
17667.801,12.207,29.785,27.344,31.250,21.973,0
17667.805,-1.465,28.320,26.367,24.414,0.000,0
17667.809,8.789,27.832,22.949,18.555,45.410,0
17667.813,15.137,24.902,20.996,18.066,52.734,0
17667.817,6.348,20.020,21.484,15.137,58.594,0
17667.821,9.766,23.926,26.855,12.695,30.273,0
17667.825,15.625,29.297,28.809,17.090,-0.488,0
17667.829,22.461,33.203,22.461,24.902,30.273,0
17667.833,22.461,32.715,25.879,22.949,57.129,0
17667.837,13.672,31.738,30.762,18.555,54.199,0
17667.840,17.578,34.668,28.809,21.973,37.109,0
17667.844,28.320,34.668,28.320,33.691,84.473,0
17667.848,23.926,32.715,25.879,25.879,48.340,0
17667.852,14.160,32.227,29.297,9.277,-3.906,0
17667.856,13.184,30.762,27.344,4.395,-20.996,0
17667.860,20.020,29.297,25.879,10.254,37.109,0
17667.864,13.672,35.645,31.250,11.719,98.145,0
17667.868,-6.836,33.691,22.461,-12.207,68.848,0
17667.872,-9.766,32.227,25.391,-18.066,49.316,0
17667.876,-15.625,39.062,33.691,-8.301,49.805,0
17667.879,-27.832,39.551,29.785,-20.020,21.484,0
17667.883,-33.691,34.180,24.414,-41.016,49.316,0
17667.887,-46.387,29.297,26.855,-49.805,74.707,0
17667.891,-53.223,32.715,28.809,-47.852,21.973,0
17667.895,-50.293,33.203,26.367,-49.805,-20.508,0
17667.899,-53.711,31.738,25.391,-65.430,9.277,0
17667.903,-66.895,36.133,21.973,-80.566,35.156,0
17667.907,-70.312,33.203,20.508,-80.566,16.602,0
17667.911,-68.848,30.762,25.879,-68.359,12.207,0
17667.915,-80.078,31.738,29.785,-77.637,36.133,0
17667.919,-83.984,32.227,19.531,-86.426,7.812,0
17667.922,-84.961,32.715,20.020,-86.914,-4.395,0
17667.926,-88.379,29.785,32.715,-89.355,1.953,0
17667.930,-73.730,25.879,42.969,-68.848,-32.715,0
17667.934,-60.059,25.391,46.875,-57.617,35.156,0
17667.938,-65.918,24.902,41.016,-70.312,76.660,0
17667.942,-59.570,24.414,36.621,-68.359,30.273,0
17667.946,-44.922,22.949,40.527,-46.875,49.316,0
17667.950,-40.527,21.484,37.109,-39.062,38.574,0
17667.954,-28.320,20.020,31.250,-26.367,1.953,0
17667.958,-16.113,21.484,34.668,-14.648,23.438,0
17667.962,1.953,27.344,37.598,-6.348,36.133,0
17667.965,9.766,24.902,39.062,3.906,5.859,0
17667.969,2.930,18.066,35.156,13.672,24.414,0
17667.973,12.695,21.484,32.715,26.855,45.898,0
17667.977,29.785,26.367,38.086,35.645,46.387,0
17667.981,42.969,22.949,39.551,41.504,7.324,0
17667.985,52.734,17.578,32.715,41.504,6.348,0
17667.989,50.293,19.043,25.879,42.969,49.805,0
17667.993,45.898,27.832,25.879,55.664,64.453,0
17667.997,43.457,29.785,29.785,64.453,62.012,0
17668.001,50.293,24.902,30.273,70.801,47.852,0
17668.004,62.988,24.414,25.879,61.523,25.391,0
17668.008,70.801,27.344,22.949,57.129,-1.953,0
17668.012,65.918,32.715,21.973,72.266,-5.371,0
17668.016,59.570,30.762,19.531,71.777,21.973,0
17668.020,66.406,23.926,16.113,68.848,34.180,0
17668.024,72.754,23.926,21.484,68.848,17.578,0
17668.028,72.754,25.391,28.809,73.730,29.785,0
17668.032,73.730,26.855,29.785,76.172,36.133,0
17668.036,72.754,29.297,25.879,67.383,2.930,0
17668.040,78.125,30.762,22.949,72.266,0.000,0
17668.044,78.125,31.738,25.391,82.520,6.348,0
17668.047,71.289,29.785,26.855,84.961,-2.441,0
17668.051,75.195,26.855,22.461,77.148,49.316,0
17668.055,72.266,27.344,18.555,68.359,83.496,0
17668.059,56.641,32.227,19.043,70.312,69.824,0
17668.063,55.176,38.086,22.949,77.148,-8.789,0
17668.067,66.895,33.203,19.531,69.336,-16.602,0
17668.071,69.824,26.367,15.625,56.641,18.066,0
17668.075,66.895,29.297,14.160,60.059,13.672,0
17668.079,63.477,34.668,18.555,68.848,-3.906,0
17668.083,60.059,33.691,22.949,69.824,-29.785,0
17668.087,66.895,28.320,19.043,61.035,15.625,0
17668.090,64.453,29.785,20.996,55.664,66.895,0
17668.094,59.082,33.691,26.367,58.594,39.062,0
17668.098,63.477,32.227,28.320,65.430,19.043,0
17668.102,63.477,25.879,26.855,64.453,43.945,0
17668.106,53.223,23.438,25.391,58.105,50.781,0
17668.110,52.246,21.484,27.344,55.664,75.684,0
17668.114,55.176,21.973,29.297,61.523,78.125,0
17668.118,49.316,23.438,25.391,60.547,24.902,0
17668.122,44.434,24.414,22.461,51.758,20.996,0
17668.126,52.734,27.832,26.367,61.035,9.766,0
17668.129,60.059,29.785,31.738,67.871,25.391,0
17668.133,51.758,28.320,28.320,62.988,46.875,0
17668.137,42.969,24.414,21.484,52.734,15.137,0
17668.141,44.922,27.344,26.855,62.012,16.113,0
17668.145,60.547,28.809,33.203,75.684,42.969,0
17668.149,58.105,26.367,30.273,57.129,46.387,0
17668.153,40.527,25.391,26.855,38.574,-24.414,0
17668.157,41.992,24.414,25.879,44.434,-40.527,0
17668.161,39.551,27.344,30.273,54.688,7.812,0
17668.165,32.227,28.809,35.156,55.664,13.672,0
17668.169,44.434,25.879,33.203,53.711,31.250,0
17668.172,59.570,31.250,31.738,51.758,55.664,0
17668.176,49.316,33.691,32.227,53.223,38.574,0
17668.180,38.574,33.691,36.621,59.082,90.332,0
17668.184,40.039,30.762,35.645,55.176,62.012,0
17668.188,41.016,25.391,30.273,49.805,11.719,0
17668.192,40.527,30.273,29.297,43.945,-3.906,0
17668.196,39.551,34.668,31.738,53.223,-9.766,0
17668.200,36.133,32.715,33.691,63.965,87.402,0
17668.204,30.762,29.297,29.297,53.711,109.863,0
17668.208,35.645,27.832,31.250,47.852,41.016,0
17668.212,37.109,28.320,34.180,45.898,52.734,2
17668.215,33.691,28.809,32.227,38.574,60.547,0
17668.219,35.156,29.785,27.832,29.785,49.316,0
17668.223,40.039,32.715,21.973,30.273,37.598,0
17668.227,34.668,32.227,23.926,37.109,8.301,0
17668.231,27.832,32.227,29.785,46.875,22.461,0
17668.235,35.156,32.227,27.344,40.039,-33.203,0
17668.239,35.645,29.297,25.879,27.344,-38.574,0
17668.243,35.156,28.320,27.832,35.156,-9.277,0
17668.247,37.598,31.250,27.832,40.039,1.465,0
17668.251,32.715,33.203,23.438,31.738,-27.832,0
17668.254,25.879,31.250,19.531,27.344,-27.832,0
17668.258,26.367,31.250,22.949,31.250,16.113,0
17668.262,34.668,35.645,25.391,31.738,58.105,0
17668.266,32.227,34.668,25.391,34.668,43.945,0
17668.270,22.949,28.809,26.855,39.551,-10.742,0
17668.274,20.996,25.879,28.809,31.250,-28.320,0
17668.278,25.879,30.762,28.320,34.668,4.883,0
17668.282,28.809,33.203,27.344,38.086,66.406,0
17668.286,19.531,23.438,22.949,30.762,41.504,0
17668.290,9.277,24.414,23.438,33.203,35.156,0
17668.294,19.043,32.227,29.297,42.969,41.992,0
17668.297,26.855,32.227,34.180,43.945,-5.859,0
17668.301,16.602,26.855,31.738,37.598,20.020,0
17668.305,22.949,25.391,26.855,32.227,47.363,0
17668.309,28.320,31.250,30.273,33.203,31.738,0
17668.313,21.973,35.156,31.738,37.109,43.457,0
17668.317,24.902,32.227,26.855,38.086,61.523,0
17668.321,28.809,27.344,28.320,26.855,97.168,0
17668.325,36.133,30.762,33.691,18.066,73.730,0
17668.329,41.504,36.621,35.645,30.762,10.742,0
17668.333,30.762,35.156,33.691,31.738,45.898,0
17668.337,33.203,32.227,29.785,32.227,89.355,0
17668.340,37.109,33.691,27.344,36.133,58.594,0
17668.344,25.879,35.645,29.785,36.133,4.883,0
17668.348,20.996,34.668,28.809,39.551,25.391,0
17668.352,26.855,29.297,18.555,28.809,61.523,0
17668.356,31.738,27.832,21.973,25.391,60.547,0
17668.360,25.391,27.832,30.762,31.738,37.109,0
17668.364,18.066,25.391,29.297,28.320,43.945,0
17668.368,21.973,27.344,25.391,23.438,41.504,0
17668.372,24.902,31.250,23.926,23.926,25.879,0
17668.376,37.598,34.668,26.855,31.738,-26.855,0
17668.379,38.574,37.109,31.738,36.133,-34.668,0
17668.383,26.855,33.691,30.273,31.250,19.531,0
17668.387,32.715,28.809,25.391,28.320,18.555,0
17668.391,27.832,27.832,30.273,37.598,13.672,0
17668.395,22.461,29.297,37.598,54.199,12.695,0
17668.399,25.879,29.785,39.551,50.781,13.184,0
17668.403,29.785,24.414,34.668,36.621,32.715,0
17668.407,34.668,20.508,33.691,40.527,36.621,0
17668.411,35.645,28.320,37.598,36.133,31.738,0
17668.415,40.527,35.156,35.156,32.715,69.336,0
17668.419,43.457,34.180,28.809,38.574,68.848,0
17668.422,36.133,34.180,25.879,30.762,17.090,0
17668.426,41.504,37.598,24.902,27.832,49.805,0
17668.430,42.480,38.086,26.367,36.621,65.430,0
17668.434,32.715,36.133,28.320,32.227,55.664,0
17668.438,30.273,31.250,27.832,32.715,72.266,0
17668.442,27.832,28.809,27.832,25.879,46.387,0
17668.446,31.738,33.203,28.320,20.996,39.551,0
17668.450,36.621,32.227,25.879,23.926,81.055,0
17668.454,35.156,30.762,25.391,20.508,106.934,0
17668.458,29.297,33.691,29.785,19.043,70.801,0
17668.462,26.855,34.180,34.180,21.973,30.273,0
17668.465,33.691,33.691,31.738,26.367,22.949,0
17668.469,29.297,33.203,28.809,29.785,-25.391,0
17668.473,19.043,33.203,29.297,25.879,-8.301,0
17668.477,19.043,31.250,27.832,27.344,63.965,0
17668.481,15.625,29.785,30.762,31.738,-7.812,0
17668.485,2.441,26.855,29.785,26.855,-13.672,0
17668.489,3.906,26.367,26.855,30.762,31.250,0
17668.493,13.184,32.715,28.809,38.086,-8.301,0
17668.497,14.160,35.645,31.738,36.621,27.832,0
17668.501,16.602,31.250,29.785,30.762,37.598,0
17668.504,29.785,28.809,25.879,35.645,7.324,0
17668.508,28.320,31.250,28.320,39.551,18.066,0
17668.512,21.973,32.227,34.668,39.062,32.227,0
17668.516,32.227,26.367,33.203,46.875,-11.230,0
17668.520,34.668,20.020,28.809,38.086,-1.953,0
17668.524,25.879,25.391,26.855,21.484,12.207,0
17668.528,29.785,33.691,27.344,26.855,-12.207,0
17668.532,28.320,34.668,25.391,29.785,17.090,0
17668.536,31.250,30.762,20.020,27.832,3.418,0
17668.540,44.922,30.273,22.949,27.832,-2.930,0
17668.544,41.016,31.250,27.832,24.902,22.949,0
17668.547,36.133,31.250,31.738,31.738,12.207,0
17668.551,31.250,27.832,27.344,28.809,19.531,0
17668.555,20.996,25.879,21.484,14.648,69.336,0
17668.559,17.578,30.762,26.367,16.602,51.270,0
17668.563,15.625,31.738,31.738,25.879,10.742,0
17668.567,11.230,24.414,28.809,24.414,19.043,0
17668.571,13.184,25.879,23.926,20.020,46.875,0
17668.575,14.648,32.227,23.438,19.531,122.559,0
17668.579,20.020,36.133,29.785,34.180,85.449,0
17668.583,21.973,32.227,29.297,37.109,79.590,0
17668.587,19.531,24.902,24.902,34.180,64.453,0
17668.590,25.391,28.809,28.320,40.039,25.879,0
17668.594,32.227,31.250,32.227,40.527,5.371,0
17668.598,35.156,29.297,31.738,38.086,-34.180,0
17668.602,35.156,25.391,29.297,30.762,20.508,0
17668.606,28.809,18.555,23.438,25.391,50.781,0
17668.610,28.320,19.043,25.879,36.621,32.715,0
17668.614,38.574,26.367,32.227,48.340,17.090,0
17668.618,34.180,24.414,29.297,39.062,31.738,0
17668.622,33.691,25.391,24.414,30.273,17.090,0
17668.626,38.086,33.691,22.461,32.227,38.086,0
17668.629,40.039,31.738,24.902,36.621,65.918,0
17668.633,42.969,24.414,22.949,35.645,38.574,0
17668.637,36.133,24.414,20.508,34.180,41.992,0
17668.641,24.414,26.367,24.414,35.156,62.988,0
17668.645,19.531,25.391,25.879,30.273,47.852,0
17668.649,25.879,27.832,21.973,25.879,57.129,0
17668.653,30.762,31.738,20.508,22.949,27.344,0
17668.657,28.320,33.691,21.484,18.555,35.156,0
17668.661,20.020,34.668,27.344,29.785,66.895,0
17668.665,18.066,37.109,30.762,29.297,39.551,0
17668.669,18.066,33.691,25.391,14.160,-17.090,0
17668.672,20.508,31.250,24.414,16.602,-0.977,0
17668.676,20.996,30.762,28.320,29.297,8.789,0
17668.680,27.344,28.809,30.273,36.133,-9.277,0
17668.684,33.691,27.344,26.367,31.250,15.625,0
17668.688,29.297,30.273,25.391,38.086,12.207,0
17668.692,34.180,35.645,28.809,41.016,27.832,0
17668.696,36.133,37.109,28.809,37.109,38.574,0
17668.700,29.297,34.180,25.391,31.738,39.062,0
17668.704,31.250,32.227,23.438,20.996,20.020,0
17668.708,29.297,35.645,26.855,22.461,44.922,0
17668.712,21.973,34.180,28.320,26.855,90.820,0
17668.715,24.902,27.832,28.320,35.156,33.203,0
17668.719,25.391,24.414,24.902,27.344,13.184,0
17668.723,16.602,27.344,22.461,19.043,49.316,0
17668.727,21.973,32.227,26.855,29.297,67.383,0
17668.731,28.320,32.715,29.785,31.250,37.109,0
17668.735,34.668,29.297,25.391,20.996,20.996,0
17668.739,28.320,29.785,22.461,20.508,17.090,0
17668.743,8.789,31.738,26.367,36.133,2.441,0
17668.747,9.766,30.762,30.762,30.273,-13.672,0
17668.751,17.090,28.809,29.785,19.043,-19.043,0
17668.754,20.996,24.414,22.461,25.391,15.137,0
17668.758,25.391,22.949,21.973,32.715,-11.719,0
17668.762,18.555,26.855,27.344,27.832,7.324,0
17668.766,21.484,30.762,25.391,23.438,43.457,0
17668.770,32.227,30.273,21.973,30.762,12.695,0
17668.774,28.809,27.832,22.949,30.273,13.184,0
17668.778,30.762,30.762,25.879,22.461,4.395,0
17668.782,35.645,30.762,25.879,20.508,-0.488,0
17668.786,37.109,26.367,24.902,22.949,-12.207,0
17668.790,36.133,29.297,26.855,28.809,24.414,0
17668.794,34.668,32.715,27.344,32.715,83.984,0
17668.797,37.109,28.809,29.785,33.203,79.102,0
17668.801,33.203,22.949,25.879,25.879,35.645,0
17668.805,28.320,27.832,22.461,20.996,39.551,0
17668.809,35.645,34.668,27.832,31.738,44.434,0
17668.813,34.180,35.645,30.762,42.969,53.223,0
17668.817,33.203,34.180,30.762,39.062,117.676,0
17668.821,39.551,30.762,30.273,26.855,74.219,0
17668.825,35.156,32.715,31.250,28.320,15.625,0
17668.829,27.344,37.598,30.762,34.668,28.809,0
17668.833,23.438,33.203,27.832,23.926,20.996,0
17668.837,18.555,24.414,21.484,23.926,20.508,0
17668.840,18.066,24.414,21.484,38.574,22.461,0
17668.844,27.832,30.762,27.344,37.598,17.090,0
17668.848,35.645,35.645,25.391,28.320,7.324,0
17668.852,29.297,35.645,20.020,25.391,-36.133,0
17668.856,34.668,33.203,17.090,24.414,42.480,0
17668.860,47.363,34.668,19.043,24.902,97.168,0
17668.864,37.598,34.180,21.973,29.785,67.383,0
17668.868,35.156,30.273,16.602,34.668,24.414,0
17668.872,41.016,27.344,15.137,31.250,-12.207,0
17668.876,33.691,25.879,20.020,21.973,62.988,0
17668.879,26.367,29.785,21.973,27.344,42.969,0
17668.883,23.926,34.180,20.020,28.320,-6.348,0
17668.887,26.367,30.762,14.648,21.973,65.918,0
17668.891,24.414,31.250,15.625,23.438,66.895,0
17668.895,26.367,38.086,22.949,30.762,93.262,2
17668.899,26.855,36.133,27.344,33.203,56.152,0
17668.903,13.184,26.367,24.414,15.137,22.949,0
17668.907,7.324,23.438,25.391,13.672,21.484,0
17668.911,10.254,28.320,30.762,24.902,-18.066,0
17668.915,6.836,31.250,32.227,23.438,40.527,0
17668.919,9.766,22.461,28.809,20.996,48.828,0
17668.922,14.160,21.484,26.367,22.949,8.301,0
17668.926,15.625,29.297,27.344,22.949,34.668,0
17668.930,26.855,35.645,30.273,24.414,-20.020,0
17668.934,34.180,35.645,28.809,27.832,-13.184,0
17668.938,33.691,29.297,25.879,29.785,64.941,0
17668.942,24.414,29.785,28.809,30.762,48.340,0
17668.946,14.160,30.762,31.250,20.508,-6.348,0
17668.950,19.531,29.785,29.785,17.578,-1.953,0
17668.954,20.508,29.297,26.367,17.578,27.344,0
17668.958,12.695,31.738,25.879,14.160,55.664,0
17668.962,14.648,32.227,27.832,23.438,62.988,0
17668.965,19.531,26.367,29.297,34.180,-3.418,0
17668.969,24.902,27.832,27.832,33.691,-4.883,0
17668.973,21.973,34.180,26.855,29.297,-28.809,0
17668.977,16.113,33.691,29.785,19.531,1.465,0
17668.981,27.832,33.691,33.203,21.973,24.902,0
17668.985,30.762,29.785,27.344,24.902,-3.906,0
17668.989,29.297,28.809,23.438,16.113,23.438,0
17668.993,28.809,35.645,27.344,17.578,-4.395,0
17668.997,21.973,32.715,30.762,25.391,35.156,0
17669.001,23.438,24.902,28.809,23.926,41.992,0
17669.004,20.020,23.438,25.391,17.090,4.395,0
17669.008,19.531,25.879,27.832,24.902,16.113,0
17669.012,28.809,27.832,32.715,34.668,-1.953,0
17669.016,29.297,26.855,32.227,32.227,17.090,0
17669.020,25.391,24.902,27.344,27.344,5.371,0
17669.024,28.809,25.879,29.785,24.902,-5.859,0
17669.028,23.926,28.320,31.738,29.297,34.668,0
17669.032,17.578,26.855,31.250,35.645,59.082,0
17669.036,25.391,24.414,26.367,29.297,32.715,0
17669.040,24.902,28.809,21.484,24.414,12.695,0
17669.044,17.578,32.227,23.926,28.320,12.207,0
17669.047,21.973,32.715,27.832,30.273,-23.438,0
17669.051,24.414,31.738,27.832,33.203,17.090,0
17669.055,22.949,29.297,26.367,27.344,76.172,0
17669.059,22.949,29.785,28.809,31.250,15.137,0
17669.063,24.902,29.785,29.785,41.016,21.484,0
17669.067,29.785,28.320,22.949,27.344,3.906,0
17669.071,31.250,27.344,19.531,23.926,15.137,0
17669.075,26.367,25.879,25.391,26.367,98.633,0
17669.079,36.621,27.344,29.785,32.227,90.820,0
17669.083,41.016,29.297,30.273,39.062,37.109,0
17669.087,39.062,25.879,25.879,26.855,49.805,0
17669.090,46.875,28.320,22.461,29.297,27.344,0
17669.094,41.016,33.203,24.902,35.156,14.648,0
17669.098,27.344,34.180,27.344,34.180,55.176,0
17669.102,32.227,31.738,22.949,26.855,81.055,0
17669.106,36.133,28.809,20.996,25.879,18.555,0
17669.110,25.879,31.250,22.949,27.832,-25.879,0
17669.114,22.949,34.180,25.391,27.344,51.758,0
17669.118,26.855,28.809,24.414,26.855,41.992,0
17669.122,27.832,21.973,20.996,18.555,37.109,0
17669.126,19.531,24.902,23.438,19.043,27.344,0
17669.129,16.602,33.691,28.320,26.367,-40.039,0
17669.133,22.461,36.133,24.414,26.367,2.930,0
17669.137,34.180,31.738,18.066,30.762,32.715,0
17669.141,30.273,32.227,19.531,29.297,20.996,0
17669.145,18.555,30.762,24.414,18.555,43.945,0
17669.149,13.184,28.320,24.902,14.648,28.320,0
17669.153,11.230,28.320,21.973,25.879,53.223,0
17669.157,20.020,27.832,23.438,33.203,43.945,0
17669.161,29.785,28.320,30.273,27.832,57.129,0
17669.165,29.785,30.273,32.715,21.973,50.781,0
17669.169,26.367,32.227,28.809,20.020,29.785,0
17669.172,29.297,36.621,24.414,21.973,49.316,0
17669.176,31.738,37.109,23.926,27.344,20.508,0
17669.180,29.297,38.574,27.832,28.320,23.926,0
17669.184,26.367,35.645,25.391,27.832,40.039,0
17669.188,25.391,29.297,22.461,24.414,46.875,0
17669.192,24.414,30.273,25.391,23.926,79.102,0
17669.196,22.949,33.691,29.785,22.949,80.566,0
17669.200,38.574,32.715,30.273,20.996,64.941,0
17669.204,45.898,25.879,27.344,30.762,40.527,0
17669.208,33.691,20.020,25.879,41.992,15.625,0
17669.212,26.855,22.949,30.762,43.457,81.055,0
17669.215,25.879,27.344,29.785,33.203,11.719,0
17669.219,27.344,28.320,26.855,28.809,-52.246,0
17669.223,21.484,29.785,30.762,30.273,-1.953,0
17669.227,17.578,32.227,31.738,35.645,-25.391,0
17669.231,23.926,32.715,32.227,35.645,9.277,0
17669.235,29.785,28.320,27.344,24.902,36.621,0
17669.239,31.250,25.879,23.926,23.438,10.742,0
17669.243,26.367,25.879,29.297,30.762,16.602,0
17669.247,26.855,29.785,33.203,36.133,84.961,0
17669.251,28.809,23.926,28.320,32.227,73.730,0
17669.254,20.508,16.602,23.438,38.574,30.762,0
17669.258,22.949,23.926,29.297,46.387,52.734,0
17669.262,31.250,32.227,37.109,54.199,45.410,0
17669.266,35.156,30.273,33.691,48.340,12.695,0
17669.270,36.621,26.855,23.438,31.738,9.277,0
17669.274,27.344,29.297,20.996,34.180,8.789,0
17669.278,24.902,31.738,26.367,36.621,29.785,0
17669.282,25.391,29.297,30.273,37.109,83.008,0
17669.286,22.461,24.902,29.297,29.785,20.508,0
17669.290,26.855,27.832,28.809,27.832,-6.348,0
17669.294,28.809,32.715,29.785,30.273,32.227,0
17669.297,25.879,36.133,30.273,27.832,16.602,0
17669.301,25.879,35.645,26.367,21.973,9.766,0
17669.305,21.973,31.738,21.973,24.414,40.039,0
17669.309,17.090,32.715,25.879,33.691,45.898,0
17669.313,20.508,33.691,30.273,36.133,17.578,0
17669.317,20.508,28.809,25.391,26.367,13.672,0
17669.321,21.973,26.367,20.996,31.250,33.691,0
17669.325,23.438,27.344,23.438,30.273,33.203,0
17669.329,30.762,25.391,27.344,22.949,47.363,0
17669.333,31.738,24.902,23.926,16.602,44.434,0
17669.337,20.996,28.809,20.020,15.625,33.691,0
17669.340,21.973,33.203,22.949,30.273,43.457,0
17669.344,24.414,35.156,25.879,35.645,61.523,0
17669.348,19.531,32.227,27.832,40.527,54.688,0
17669.352,26.367,26.855,24.414,40.039,12.207,0
17669.356,27.344,26.367,20.996,26.855,48.828,0
17669.360,18.066,30.273,22.949,23.926,30.762,0
17669.364,24.414,33.203,28.809,34.180,-21.973,0
17669.368,28.809,30.273,25.391,34.180,44.434,0
17669.372,22.949,20.996,21.484,31.250,56.152,0
17669.376,21.484,21.484,27.344,30.762,-9.766,0
17669.379,26.855,31.738,33.203,36.621,-11.230,0
17669.383,28.320,31.738,29.297,33.203,11.230,0
17669.387,29.297,29.297,23.926,18.555,37.598,0
17669.391,29.297,32.715,26.367,25.879,70.312,0
17669.395,26.855,35.156,27.344,35.645,72.266,0
17669.399,24.902,33.691,27.344,32.227,46.387,0
17669.403,26.855,26.855,25.879,32.715,-16.602,0
17669.407,24.414,21.973,23.926,35.156,-20.508,0
17669.411,30.762,29.297,27.832,41.016,22.461,1
17669.415,31.738,35.156,29.785,44.434,24.414,0
17669.419,22.949,35.645,26.855,31.738,16.113,0
17669.422,26.855,37.109,26.367,23.438,-0.977,0
17669.426,26.367,38.086,28.320,31.250,-21.484,0
17669.430,25.391,40.039,32.715,37.598,29.785,0
17669.434,29.785,37.598,30.762,31.738,81.543,0
17669.438,26.855,34.180,26.367,28.809,77.148,0
17669.442,22.461,34.668,26.855,35.156,46.875,0
17669.446,20.996,31.250,26.855,28.809,-8.789,0
17669.450,19.531,27.832,23.926,23.926,2.441,0
17669.454,20.020,29.785,19.043,26.855,25.391,0
17669.458,20.996,31.738,22.949,25.391,71.289,0
17669.462,27.344,37.109,29.297,28.320,67.871,0
17669.465,33.203,39.551,25.391,28.809,14.160,0
17669.469,30.273,35.156,16.113,13.672,52.246,0
17669.473,25.879,34.180,13.672,8.789,109.375,0
17669.477,22.949,35.156,20.020,13.184,69.824,0
17669.481,19.531,34.668,23.926,22.949,54.688,0
17669.485,18.555,27.344,20.508,30.762,84.473,0
17669.489,21.484,22.461,18.066,27.344,69.824,0
17669.493,16.113,30.273,20.508,22.461,1.465,0
17669.497,15.625,34.180,22.949,21.973,-20.020,0
17669.501,29.297,30.273,21.484,27.344,13.672,0
17669.504,29.785,29.297,21.484,26.855,20.996,0
17669.508,16.602,31.738,24.902,25.391,17.090,0
17669.512,14.160,32.715,27.344,21.484,21.973,0
17669.516,16.602,30.762,23.926,14.160,-4.395,0
17669.520,19.043,28.320,16.113,14.648,40.527,0
17669.524,15.137,27.832,17.090,15.137,140.625,0
17669.528,6.348,27.832,23.438,18.555,78.125,0
17669.532,6.836,28.320,26.855,23.926,32.715,0
17669.536,13.184,21.484,22.949,19.531,25.391,0
17669.540,18.555,20.020,19.531,20.508,47.363,0
17669.544,20.508,31.250,21.973,27.344,99.609,0
17669.547,24.902,35.645,23.438,33.203,49.316,0
17669.551,23.438,31.250,20.508,31.250,-31.738,0
17669.555,17.578,29.297,18.555,26.367,-19.043,0
17669.559,20.508,32.227,20.020,29.297,4.395,0
17669.563,18.066,34.668,20.508,22.461,-4.395,0
17669.567,14.160,31.738,21.973,10.742,-9.766,0
17669.571,24.414,26.855,21.484,16.113,49.805,0
17669.575,27.832,26.367,22.949,22.949,44.922,0
17669.579,29.785,33.691,25.879,29.297,6.836,0
17669.583,30.273,37.109,27.344,29.785,3.906,0
17669.587,26.855,33.691,25.879,14.160,-5.859,0
17669.590,25.879,32.227,25.391,14.160,-27.344,0
17669.594,18.066,32.715,28.809,20.996,-18.066,0
17669.598,18.066,32.715,31.250,26.855,4.883,0
17669.602,27.344,32.715,28.320,24.414,51.270,0
17669.606,25.879,29.297,25.879,20.996,84.473,0
17669.610,19.531,24.414,28.320,26.855,104.980,0
17669.614,25.879,28.320,29.785,28.320,76.660,0
17669.618,30.273,30.762,24.902,23.926,38.574,0
17669.622,32.715,31.250,20.508,26.855,53.711,0
17669.626,34.180,32.227,26.367,22.949,19.043,0
17669.629,28.809,34.668,32.715,21.973,4.395,0
17669.633,21.973,33.691,26.367,19.043,-12.207,0
17669.637,16.602,28.809,21.973,13.672,-16.113,0
17669.641,19.043,29.785,26.855,33.203,19.043,0
17669.645,18.066,30.273,30.762,38.574,-3.418,0
17669.649,19.531,26.367,33.203,34.180,15.625,0
17669.653,28.320,21.484,32.227,36.133,50.293,0
17669.657,30.762,27.344,33.203,32.227,17.578,0
17669.661,34.180,37.109,38.086,36.133,25.391,0
17669.665,29.785,37.109,38.574,36.621,38.086,0
17669.669,23.438,31.738,28.809,34.180,51.270,0
17669.672,30.273,31.738,24.902,42.969,41.016,0
17669.676,30.762,34.180,28.320,41.992,51.270,0
17669.680,27.344,34.668,31.250,31.738,95.215,0
17669.684,32.227,32.715,25.879,27.832,31.250,0
17669.688,34.668,31.250,24.902,24.414,8.789,0
17669.692,29.297,26.367,32.227,25.391,64.453,0
17669.696,32.227,25.879,37.109,32.227,62.988,0
17669.700,37.598,30.273,34.180,38.574,18.066,0
17669.704,29.297,30.762,27.832,34.180,19.043,0
17669.708,20.508,33.691,27.832,32.227,5.371,0
17669.712,20.996,35.645,31.738,34.668,14.648,0
17669.715,25.879,33.203,31.250,31.250,74.219,0
17669.719,23.438,25.879,27.344,24.414,43.945,0
17669.723,22.949,29.785,29.297,26.367,29.297,0
17669.727,22.949,36.133,31.738,32.227,44.434,0
17669.731,23.438,35.156,32.227,32.715,38.574,0
17669.735,22.949,31.250,26.855,35.156,77.637,0
17669.739,25.391,32.715,23.926,32.715,58.594,0
17669.743,29.785,35.645,26.855,37.109,1.953,0
17669.747,25.879,34.668,28.809,42.969,-26.855,0
17669.751,26.367,32.715,25.391,32.715,-57.617,0
17669.754,29.785,33.203,20.508,19.531,1.953,0
17669.758,25.879,32.715,25.879,20.996,76.172,0
17669.762,22.949,31.250,34.180,28.809,41.016,0
17669.766,25.879,30.273,30.273,24.414,3.906,0
17669.770,39.062,28.320,23.926,20.020,24.902,0
17669.774,34.668,30.762,26.367,21.973,11.719,0
17669.778,19.043,33.691,31.738,26.855,16.113,0
17669.782,19.531,34.668,36.621,34.668,32.715,0
17669.786,23.438,30.762,29.785,31.250,50.293,0
17669.790,27.832,27.832,24.902,27.832,65.918,0
17669.794,36.621,30.762,32.227,39.551,26.367,0
17669.797,35.645,29.297,32.715,40.527,14.648,0
17669.801,28.809,28.320,28.320,34.180,27.832,0
17669.805,27.344,31.250,24.902,32.715,44.922,0
17669.809,25.879,37.109,26.367,42.480,30.762,0
17669.813,27.344,38.574,30.273,44.922,35.156,0
17669.817,34.180,31.738,28.320,25.879,74.707,0
17669.821,37.598,28.320,24.902,21.484,45.898,0
17669.825,28.320,31.250,26.855,26.855,41.016,0
17669.829,21.484,32.227,29.297,22.949,44.434,0
17669.833,27.344,26.855,27.832,25.391,27.344,0
17669.837,30.273,19.531,24.902,23.926,43.457,0
17669.840,24.902,24.414,26.367,23.926,71.777,0
17669.844,17.578,30.762,31.738,32.715,84.961,0
17669.848,18.555,28.320,34.668,34.668,-24.414,0
17669.852,29.297,25.391,27.344,28.320,-62.500,0
17669.856,27.832,23.926,23.438,22.461,41.016,0
17669.860,29.785,24.414,26.855,32.227,32.227,0
17669.864,38.574,28.320,33.691,36.621,-32.715,0
17669.868,29.297,28.809,31.738,22.461,8.789,0
17669.872,21.973,21.973,24.414,24.414,21.484,0
17669.876,22.949,20.996,25.879,28.320,48.828,0
17669.879,23.926,26.367,36.621,31.250,46.387,0
17669.883,20.996,28.320,37.109,35.645,12.695,0
17669.887,20.996,27.832,28.809,28.320,23.438,0
17669.891,26.855,30.762,30.762,22.949,4.883,0
17669.895,27.832,34.668,33.691,32.715,15.625,0
17669.899,30.273,33.691,33.203,37.109,29.297,0
17669.903,41.504,28.809,28.320,37.109,51.270,0
17669.907,29.785,30.762,25.879,35.645,44.434,0
17669.911,16.602,34.668,27.344,28.320,37.598,0
17669.915,21.484,29.785,28.809,23.926,2.930,0
17669.919,23.438,23.926,25.391,21.973,26.367,2
17669.922,26.855,27.832,25.391,27.832,28.809,0
17669.926,21.973,34.668,29.785,35.156,-18.066,0
17669.930,18.555,33.203,29.297,40.039,13.184,0
17669.934,21.973,27.832,25.391,35.156,46.875,0
17669.938,22.461,28.320,25.879,22.461,49.805,0
17669.942,18.066,26.855,26.855,17.090,21.484,0
17669.946,20.020,24.414,31.250,25.879,22.461,0
17669.950,27.344,28.320,31.250,28.809,-1.465,0
17669.954,25.879,30.762,25.879,30.273,51.758,0
17669.958,18.555,31.738,28.320,24.414,66.406,0
17669.962,21.973,36.133,33.691,26.855,-0.488,0
17669.965,21.973,33.691,30.762,30.762,-10.742,0
17669.969,10.742,26.855,22.461,20.020,26.855,0
17669.973,11.719,28.809,25.391,22.949,18.066,0
17669.977,19.531,31.250,34.180,32.715,-4.395,0
17669.981,17.090,27.344,39.551,32.227,8.301,0
17669.985,18.555,21.973,37.109,23.926,3.418,0
17669.989,25.879,26.367,33.691,22.949,18.066,0
17669.993,19.043,31.738,35.156,26.367,33.691,0
17669.997,13.672,33.203,37.109,28.320,3.418,0
17670.001,20.020,32.227,35.156,31.250,-1.953,0
17670.004,29.297,30.273,28.320,28.809,21.484,0
17670.008,22.461,32.227,28.320,26.855,39.551,0
17670.012,18.555,32.715,34.668,29.785,70.312,0
17670.016,30.762,32.715,34.668,26.855,29.297,0
17670.020,37.598,30.273,28.320,23.926,-7.324,0
17670.024,35.645,26.855,26.855,22.949,8.789,0
17670.028,28.320,31.250,33.203,33.203,-0.977,0
17670.032,21.973,34.668,33.203,34.668,57.129,0
17670.036,24.902,30.273,26.367,25.879,84.473,0
17670.040,27.832,28.809,29.785,30.273,35.645,0
17670.044,24.414,31.738,32.715,30.762,58.105,0
17670.047,19.531,30.762,33.691,31.250,40.039,0
17670.051,20.996,29.785,30.273,31.738,31.250,0
17670.055,24.902,29.785,26.367,29.785,41.504,0
17670.059,32.715,32.227,31.250,37.109,55.176,0
17670.063,25.879,33.203,33.691,35.645,19.043,0
17670.067,11.230,28.320,29.785,24.414,29.297,0
17670.071,11.230,20.508,27.344,16.113,26.367,0
17670.075,10.254,17.090,27.832,23.926,-1.953,0
17670.079,15.137,26.367,32.715,39.062,38.086,0
17670.083,27.344,33.691,35.156,40.527,21.973,0
17670.087,30.762,29.297,26.855,32.227,57.129,0
17670.090,26.855,26.367,24.414,29.297,60.059,0
17670.094,26.367,29.297,29.297,30.762,-8.789,0
17670.098,20.508,28.809,29.297,33.691,-35.645,0
17670.102,20.508,23.926,24.902,34.180,1.465,0
17670.106,26.855,24.414,20.508,29.297,27.832,0
17670.110,27.344,26.367,20.508,30.762,18.555,0
17670.114,28.320,25.879,24.414,30.762,0.488,0
17670.118,30.273,27.832,24.902,26.367,28.809,0
17670.122,27.832,31.738,26.855,27.344,-22.949,0
17670.126,22.949,33.203,28.809,24.414,1.465,0
17670.129,21.973,30.762,25.879,22.461,76.660,0
17670.133,22.949,26.855,23.438,20.508,44.434,0
17670.137,23.926,24.414,23.438,17.578,-3.418,0
17670.141,25.879,27.344,24.902,17.090,5.371,0
17670.145,20.996,30.273,25.391,16.113,65.918,0
17670.149,15.625,30.273,23.438,14.648,62.988,0
17670.153,21.973,24.414,21.973,14.160,43.457,0
17670.157,26.855,20.020,23.438,20.508,13.184,0
17670.161,23.438,26.855,26.855,28.809,-3.418,0
17670.165,17.578,32.715,27.344,24.414,48.828,0
17670.169,17.090,30.762,23.926,18.066,64.941,0
17670.172,23.438,27.344,21.484,16.602,26.855,0
17670.176,22.949,29.297,23.926,12.207,16.602,0
17670.180,20.020,34.180,28.809,14.160,54.199,0
17670.184,24.902,33.691,26.367,19.043,79.590,0
17670.188,26.367,24.902,24.414,24.414,24.414,0
17670.192,23.438,21.973,26.367,26.855,66.895,0
17670.196,23.438,29.297,25.879,31.250,41.016,0
17670.200,29.785,31.738,23.926,30.762,-1.465,0
17670.204,30.762,31.250,19.043,27.832,47.852,0
17670.208,30.273,33.691,20.020,20.996,70.801,0
17670.212,30.273,34.180,24.902,22.461,71.777,0
17670.215,28.320,32.715,27.344,26.855,48.828,0
17670.219,31.738,30.762,22.949,22.949,65.918,0
17670.223,31.250,32.715,19.531,22.461,74.707,0
17670.227,32.227,33.691,22.949,34.180,67.383,0
17670.231,37.109,31.250,27.832,40.527,19.531,0
17670.235,34.180,31.738,27.832,41.016,16.602,0
17670.239,33.691,34.180,27.832,43.945,72.754,0
17670.243,32.227,35.645,27.832,33.203,23.926,0
17670.247,26.855,36.133,26.367,24.414,-11.719,0
17670.251,31.738,35.645,26.367,28.320,33.691,0
17670.254,41.016,33.203,23.438,31.738,3.418,0
17670.258,37.109,33.203,23.438,36.133,95.703,0
17670.262,33.203,37.598,31.250,38.086,150.879,0
17670.266,34.180,31.738,29.785,27.832,64.453,0
17670.270,32.715,21.973,23.926,20.996,10.254,0
17670.274,28.320,24.902,21.973,22.949,-8.301,0
17670.278,31.738,33.203,25.391,30.273,5.371,0
17670.282,36.133,34.668,28.320,35.156,4.883,0
17670.286,30.273,29.785,25.391,37.598,-4.883,0
17670.290,29.297,27.344,24.902,37.109,9.766,0
17670.294,30.762,31.250,27.344,34.180,35.156,0
17670.297,33.203,35.645,30.273,38.086,26.367,0
17670.301,31.738,31.250,30.762,36.621,20.020,0
17670.305,18.555,22.949,29.297,33.203,33.691,0
17670.309,13.184,25.391,32.227,36.621,27.344,0
17670.313,16.113,33.203,35.156,41.016,-2.441,0
17670.317,24.902,31.738,31.738,40.527,-16.602,0
17670.321,38.086,27.344,25.879,30.273,-27.344,0
17670.325,30.762,28.320,23.926,20.020,44.434,0
17670.329,20.996,31.250,31.738,27.344,40.039,0
17670.333,14.648,24.414,33.203,25.879,15.137,0
17670.337,11.230,19.043,23.438,25.391,51.758,0
17670.340,14.648,25.879,20.508,24.414,19.531,0
17670.344,15.137,31.738,25.879,21.484,40.039,0
17670.348,13.184,31.250,29.785,26.367,65.430,0
17670.352,13.672,27.344,25.391,22.949,35.156,0
17670.356,18.066,21.484,22.949,23.926,26.855,0
17670.360,20.508,20.508,30.762,31.738,26.367,0
17670.364,21.973,26.855,34.668,38.086,-4.395,0
17670.368,26.855,28.809,25.879,31.738,4.883,0
17670.372,23.926,26.855,17.578,20.020,9.277,0
17670.376,16.602,31.250,20.508,26.855,18.066,0
17670.379,20.508,33.203,27.344,35.156,39.062,0
17670.383,19.531,28.320,26.367,25.879,52.246,0
17670.387,18.555,22.461,20.508,20.996,25.879,0
17670.391,19.043,20.996,22.461,19.531,-18.066,0
17670.395,11.719,24.414,28.809,24.414,28.320,0
17670.399,24.414,28.320,30.273,36.133,61.523,0
17670.403,29.297,25.879,28.809,23.438,63.477,0
17670.407,23.438,30.762,31.250,20.996,98.145,0
17670.411,18.555,34.668,32.715,29.785,65.918,0
17670.415,7.324,24.902,33.203,26.855,26.855,0
17670.419,17.578,21.484,29.785,24.414,20.020,0
17670.422,28.320,25.391,25.879,30.762,35.645,0
17670.426,15.625,29.297,29.297,33.203,40.039,0
17670.430,15.137,30.762,28.809,34.180,-7.324,0
17670.434,23.926,25.879,23.438,22.949,0.977,0
17670.438,16.602,24.414,23.438,20.508,59.570,0
17670.442,11.719,24.902,26.367,29.297,22.949,0
17670.446,16.113,24.414,28.320,27.832,15.625,0
17670.450,20.508,27.832,31.250,32.715,7.812,0
17670.454,17.578,26.855,28.320,28.809,-15.625,0
17670.458,18.555,28.320,27.832,34.668,20.508,0
17670.462,24.902,32.715,33.691,42.480,11.230,0
17670.465,26.855,31.738,31.738,30.762,-11.719,0
17670.469,29.785,27.832,25.879,21.973,32.715,0
17670.473,25.391,28.809,23.438,18.555,30.762,0
17670.477,20.020,28.320,26.855,24.414,29.297,0
17670.481,25.879,26.367,27.344,31.738,97.168,0
17670.485,32.227,28.809,21.973,32.715,67.871,0
17670.489,34.180,30.762,23.926,33.203,10.742,0
17670.493,33.691,31.738,29.297,29.297,41.992,0
17670.497,26.855,31.250,30.762,27.832,16.602,0
17670.501,24.414,28.809,26.367,31.250,28.320,0
17670.504,27.832,26.367,21.484,26.855,65.918,0
17670.508,24.414,25.391,24.902,21.484,29.785,0
17670.512,22.949,28.320,29.785,24.414,7.324,0
17670.516,30.762,32.227,24.902,26.855,16.113,0
17670.520,34.180,29.785,20.508,28.809,-26.855,0
17670.524,36.133,28.809,21.973,32.715,-45.410,0
17670.528,35.645,29.297,23.926,37.598,-7.812,0
17670.532,26.855,29.297,25.391,37.109,-7.812,0
17670.536,24.902,29.297,20.996,30.273,33.691,0
17670.540,25.879,30.762,20.020,34.668,43.945,0
17670.544,21.484,27.832,22.461,33.203,51.758,0
17670.547,21.484,26.855,24.902,27.344,16.113,0
17670.551,19.531,27.344,20.508,17.090,4.883,0
17670.555,24.902,28.809,16.113,13.672,28.320,0
17670.559,28.320,32.715,23.438,25.879,-14.160,0
17670.563,22.949,30.762,27.832,33.203,7.324,0
17670.567,16.602,25.879,23.438,26.367,88.867,0
17670.571,20.508,24.902,20.996,26.367,103.027,0
17670.575,29.297,26.367,26.855,32.715,59.570,0
17670.579,28.320,26.855,30.273,32.715,22.461,0
17670.583,22.949,23.438,27.832,27.344,50.293,0
17670.587,21.973,24.414,21.973,20.508,73.242,0
17670.590,24.414,29.785,20.996,26.855,41.992,0
17670.594,30.762,32.227,25.879,37.598,31.738,0
17670.598,33.691,30.273,27.832,43.457,39.551,0
17670.602,31.250,24.902,23.438,43.945,5.371,2
17670.606,32.715,26.855,22.949,28.320,24.902,0
17670.610,28.809,28.809,28.320,21.973,28.320,0
17670.614,26.855,24.902,30.762,24.414,3.418,0
17670.618,31.250,23.438,26.367,16.602,54.199,0
17670.622,34.180,24.414,24.414,18.555,16.113,0
17670.626,30.762,26.367,26.855,21.973,78.125,0
17670.629,17.578,30.762,26.855,22.461,94.727,0
17670.633,18.066,32.227,23.926,26.855,2.441,0
17670.637,14.160,28.809,21.973,22.949,35.645,0
17670.641,12.695,30.762,23.438,20.020,36.133,0
17670.645,21.484,28.809,25.879,30.273,38.086,0
17670.649,24.414,24.902,26.367,30.273,51.758,0
17670.653,29.297,25.391,23.438,25.879,35.156,0
17670.657,25.391,27.344,22.461,29.785,38.574,0
17670.661,18.066,29.297,25.879,24.414,22.461,0
17670.665,22.461,28.809,27.344,21.484,47.852,0
17670.669,25.391,26.855,21.973,16.113,66.895,0
17670.672,21.484,25.879,20.508,15.137,68.359,0
17670.676,20.508,26.855,25.879,22.949,62.012,0
17670.680,25.879,23.926,28.809,23.926,-13.672,0
17670.684,17.090,18.066,25.391,18.555,20.020,0
17670.688,15.625,21.484,22.949,23.926,46.875,0
17670.692,26.367,28.809,26.367,32.715,19.531,0
17670.696,22.461,31.250,30.273,28.320,58.105,0
17670.700,17.578,29.785,27.832,24.414,41.016,0
17670.704,23.926,25.391,21.484,26.855,10.254,0
17670.708,27.832,23.926,25.391,31.738,17.090,0
17670.712,18.555,27.344,29.785,30.762,48.828,0
17670.715,18.066,25.879,28.809,25.879,59.570,0
17670.719,19.531,19.043,25.391,19.531,9.277,0
17670.723,22.461,20.020,25.391,22.949,-2.930,0
17670.727,26.367,25.879,27.832,33.203,74.707,0
17670.731,27.832,30.762,30.762,25.391,51.270,0
17670.735,26.855,27.832,26.367,13.184,-31.738,0
17670.739,21.973,23.926,23.438,14.648,11.719,0
17670.743,15.137,22.461,26.367,14.160,77.148,0
17670.747,17.578,22.461,27.344,15.625,12.695,0
17670.751,25.391,26.367,26.367,21.973,-27.832,0
17670.754,17.578,27.344,21.973,15.625,21.484,0
17670.758,15.137,30.762,26.367,12.207,39.551,0
17670.762,22.461,34.668,34.180,17.090,39.062,0
17670.766,17.578,30.762,31.250,14.648,69.336,0
17670.770,20.996,24.414,25.879,12.207,74.707,0
17670.774,25.879,25.879,27.832,16.602,53.223,0
17670.778,25.391,31.738,31.738,25.391,33.691,0
17670.782,29.297,30.762,32.227,32.715,25.391,0
17670.786,33.203,25.391,28.809,28.320,39.551,0
17670.790,29.785,27.344,27.344,21.973,66.895,0
17670.794,27.832,31.250,30.762,24.414,25.391,0
17670.797,26.855,34.180,34.668,35.645,23.438,0
17670.801,27.832,32.227,30.762,34.180,38.086,0
17670.805,27.832,29.297,23.438,18.066,-17.578,0
17670.809,18.066,30.762,25.391,17.090,-7.324,0
17670.813,18.555,31.250,36.133,27.344,18.555,0
17670.817,22.949,28.320,35.156,25.391,22.461,0
17670.821,21.973,28.320,29.785,21.484,22.461,0
17670.825,21.973,31.250,33.203,26.367,46.387,0
17670.829,25.879,33.203,39.062,28.809,31.738,0
17670.833,25.391,31.250,38.574,29.297,-21.973,0
17670.837,29.297,27.832,32.715,36.133,-5.371,0
17670.840,34.180,27.344,33.691,41.016,52.734,0
17670.844,30.762,31.250,37.598,30.273,71.289,0
17670.848,27.832,31.250,35.645,27.344,58.594,0
17670.852,21.973,24.902,31.738,31.250,42.969,0
17670.856,18.066,22.949,28.320,25.879,78.613,0
17670.860,26.367,30.273,32.227,28.320,32.715,0
17670.864,29.297,32.227,36.133,30.762,39.062,0
17670.868,23.438,27.832,29.785,27.344,72.754,0
17670.872,22.461,25.391,24.414,22.461,63.965,0
17670.876,15.137,22.461,26.855,21.484,46.875,0
17670.879,18.555,26.855,29.785,24.414,79.590,0
17670.883,27.832,30.762,27.832,23.438,69.336,0
17670.887,22.949,30.762,24.902,23.438,0.977,0
17670.891,22.461,33.203,28.320,27.832,-46.387,0
17670.895,22.461,32.227,32.227,30.273,-11.719,0
17670.899,28.320,29.297,32.227,33.691,4.395,0
17670.903,42.969,30.273,29.297,32.715,22.949,0
17670.907,36.133,24.902,24.902,24.414,34.180,0
17670.911,23.926,20.508,26.855,30.762,23.926,0
17670.915,18.555,24.902,30.273,32.715,29.785,0
17670.919,21.484,28.320,27.832,26.367,56.641,0
17670.922,34.180,29.785,24.902,28.809,61.523,0
17670.926,25.879,27.832,26.367,30.762,20.508,0
17670.930,17.090,27.832,30.762,30.273,41.992,0
17670.934,20.996,28.320,31.250,25.391,30.273,0
17670.938,27.344,27.344,30.273,25.879,10.254,0
17670.942,20.020,28.809,32.715,24.902,26.367,0
17670.946,16.113,27.344,34.180,29.297,58.594,0
17670.950,27.832,21.973,31.738,33.203,67.871,0
17670.954,27.344,18.555,29.297,24.414,19.043,0
17670.958,18.066,20.996,32.227,24.414,-32.715,0
17670.962,21.973,27.832,37.598,32.227,-8.301,0
17670.965,27.832,29.297,35.156,28.809,76.172,0
17670.969,27.832,24.414,28.809,22.461,39.551,0
17670.973,31.250,23.926,26.855,25.879,28.809,0
17670.977,38.574,25.391,25.879,31.250,57.129,0
17670.981,43.457,27.344,30.273,37.598,29.297,0
17670.985,32.227,28.320,29.297,34.180,32.227,0
17670.989,21.973,26.367,24.414,29.297,7.324,0
17670.993,23.438,27.832,28.320,41.504,26.367,0
17670.997,21.973,28.809,28.809,44.922,33.691,0
17671.001,24.902,24.414,24.414,29.297,32.715,0
17671.004,27.344,21.484,20.020,27.832,48.828,0
17671.008,23.438,24.414,20.020,28.320,88.867,0
17671.012,24.414,25.391,26.367,17.090,109.863,0
17671.016,15.137,22.461,26.855,14.648,23.438,0
17671.020,14.648,20.508,22.461,19.043,12.695,0
17671.024,21.484,20.508,22.949,29.297,32.227,0
17671.028,17.090,25.879,29.297,34.180,-5.859,0
17671.032,11.230,27.344,32.227,25.879,10.742,0
17671.036,16.113,23.438,24.414,19.531,21.973,0
17671.040,25.391,23.926,22.461,17.578,55.664,0
17671.044,25.879,27.832,28.809,20.508,36.133,0
17671.047,26.855,27.344,29.785,27.832,-3.906,0
17671.051,35.645,23.438,23.438,25.879,41.504,0
17671.055,36.133,21.973,21.973,19.043,38.086,0
17671.059,29.785,30.762,24.414,25.879,25.879,0
17671.063,27.344,36.621,29.297,36.133,-1.465,0
17671.067,28.809,30.273,28.809,38.086,-12.695,0
17671.071,33.691,29.785,26.367,38.086,6.348,0
17671.075,25.391,30.273,23.926,27.344,41.504,0
17671.079,18.555,29.297,28.809,28.809,64.453,0
17671.083,23.438,28.809,31.738,36.621,45.410,0
17671.087,33.691,26.367,21.484,24.902,20.020,0
17671.090,36.133,27.832,23.438,23.926,41.016,0
17671.094,31.250,28.320,34.668,29.785,56.641,0
17671.098,21.973,27.832,34.180,29.785,35.156,0
17671.102,15.625,26.367,28.809,24.414,43.945,0
17671.106,18.555,22.949,27.832,24.414,94.727,0
17671.110,19.043,22.461,28.809,32.227,73.242,0
17671.114,20.996,29.297,33.203,35.645,32.715,0
17671.118,23.438,29.297,30.762,34.668,12.207,0
17671.122,22.461,25.879,28.320,26.855,41.504,0
17671.126,14.160,26.855,31.738,23.926,27.344,0
17671.129,16.602,29.297,31.738,28.320,-45.898,0
17671.133,25.391,30.273,27.832,27.832,-13.184,0
17671.137,27.344,26.855,23.926,22.949,32.227,0
17671.141,27.344,31.250,29.785,25.879,-5.371,0
17671.145,27.832,36.621,36.133,37.109,-29.297,0
17671.149,32.227,30.762,32.715,41.504,4.395,0
17671.153,37.598,28.320,25.391,32.227,-0.977,0
17671.157,31.250,29.785,22.461,20.508,-21.484,0
17671.161,36.133,32.715,28.320,29.297,15.137,0
17671.165,34.180,35.156,34.668,39.551,17.578,0
17671.169,15.625,31.738,30.273,33.203,29.297,0
17671.172,14.160,28.320,26.367,31.250,30.762,0
17671.176,14.648,28.809,28.320,26.855,9.766,0
17671.180,11.719,29.297,31.738,22.461,-2.930,0
17671.184,14.648,26.855,30.273,26.367,-2.441,0
17671.188,18.066,24.902,23.438,25.391,24.902,0
17671.192,20.020,31.250,28.809,27.832,84.961,0
17671.196,23.438,36.133,35.645,33.691,20.020,0
17671.200,24.902,30.762,32.227,27.344,-17.090,0
17671.204,16.602,24.902,27.344,20.996,32.227,0
17671.208,11.230,23.926,25.879,18.555,16.602,0
17671.212,18.555,25.391,30.273,17.578,9.766,0
17671.215,21.973,26.367,31.250,18.066,36.621,0
17671.219,25.391,22.949,26.367,18.066,62.988,0
17671.223,34.180,20.996,25.879,30.762,20.996,0
17671.227,33.203,27.832,28.320,35.156,5.859,0
17671.231,21.484,29.297,32.715,24.902,50.293,0
17671.235,20.996,27.344,30.762,20.996,40.527,0
17671.239,26.367,29.785,27.344,22.949,45.410,0
17671.243,21.484,29.297,30.762,22.461,78.125,0
17671.247,20.508,28.809,33.203,25.391,44.434,0
17671.251,23.926,25.391,28.809,24.902,3.418,0
17671.254,20.020,21.973,25.879,18.555,13.184,0
17671.258,20.996,26.855,29.785,25.391,-26.367,0
17671.262,25.391,25.879,34.180,35.156,7.324,1
17671.266,27.832,20.996,32.227,36.133,50.781,0
17671.270,34.668,23.926,27.832,26.367,8.789,0
17671.274,30.273,30.273,28.320,13.184,44.922,0
17671.278,24.414,32.227,32.715,19.531,109.863,0
17671.282,24.902,32.227,37.109,34.668,65.430,0
17671.286,22.949,28.320,30.762,31.738,53.711,0
17671.290,20.996,24.902,25.391,26.367,56.641,0
17671.294,19.531,28.809,28.809,25.879,34.180,0
17671.297,22.949,31.250,31.738,25.391,21.484,0
17671.301,33.203,25.391,29.785,24.414,5.859,0
17671.305,35.156,21.484,25.391,21.484,8.301,0
17671.309,25.391,27.344,24.414,25.879,9.277,0
17671.313,19.043,30.273,29.297,26.367,44.922,0
17671.317,25.879,27.344,28.809,12.207,72.266,0
17671.321,31.250,27.344,27.344,19.043,46.875,0
17671.325,24.902,28.320,29.297,31.738,53.223,0
17671.329,23.926,26.367,30.273,36.621,45.898,0
17671.333,24.414,25.879,30.273,38.086,1.953,0
17671.337,23.926,21.973,26.367,30.273,-28.320,0
17671.340,14.648,15.625,24.414,25.879,-4.395,0
17671.344,6.836,20.508,28.809,39.551,19.531,0
17671.348,11.230,27.832,29.785,40.527,30.273,0
17671.352,20.020,29.297,25.879,25.879,25.391,0
17671.356,20.996,27.832,23.438,21.973,8.301,0
17671.360,13.184,27.832,23.926,21.973,43.945,0
17671.364,14.160,28.320,30.273,30.273,88.379,0
17671.368,16.602,26.367,31.250,32.227,73.242,0
17671.372,14.648,20.020,26.855,21.484,43.457,0
17671.376,20.508,19.043,28.809,21.484,14.648,0
17671.379,26.855,27.344,32.715,32.715,22.949,0
17671.383,18.066,29.785,30.762,31.250,70.801,0
17671.387,9.277,25.879,27.344,18.555,30.273,0
17671.391,9.766,28.320,31.738,13.184,-26.367,0
17671.395,21.484,33.203,34.668,25.879,36.133,0
17671.399,37.598,33.203,34.668,34.668,30.762,0
17671.403,27.832,30.273,30.762,33.203,-9.277,0
17671.407,21.484,24.902,28.320,30.273,31.250,0
17671.411,28.809,24.414,31.738,32.715,10.742,0
17671.415,23.926,26.855,32.715,34.180,-47.852,0
17671.419,27.832,26.855,30.762,31.738,-35.645,0
17671.422,36.621,30.273,32.715,34.180,-23.926,0
17671.426,31.250,31.738,32.715,26.855,-15.625,0
17671.430,28.809,29.297,31.738,28.320,7.324,0
17671.434,28.320,26.855,28.809,32.227,9.277,0
17671.438,25.879,22.461,25.879,24.902,27.832,0
17671.442,23.926,22.949,28.809,20.996,18.555,0
17671.446,22.461,27.832,33.203,27.832,22.949,0
17671.450,23.438,25.391,30.762,26.367,60.059,0
17671.454,23.438,21.973,25.879,22.461,65.430,0
17671.458,29.297,24.902,25.391,31.250,66.406,0
17671.462,33.691,28.320,28.809,36.133,85.449,0
17671.465,26.367,28.809,29.297,30.273,36.133,0
17671.469,21.973,24.902,23.926,22.949,55.664,0
17671.473,23.926,26.855,24.414,24.414,67.871,0
17671.477,28.809,27.832,28.809,27.832,30.762,0
17671.481,26.367,24.902,27.832,27.832,19.531,0
17671.485,13.184,23.438,23.438,24.902,28.809,0
17671.489,9.766,25.391,25.391,22.949,67.383,0
17671.493,19.043,29.297,32.227,25.391,62.012,0
17671.497,31.250,33.203,34.668,31.250,46.387,0
17671.501,39.062,35.156,33.691,38.574,14.648,0
17671.504,35.156,29.297,28.320,40.039,35.645,0
17671.508,25.391,23.438,25.391,31.738,51.270,0
17671.512,25.879,26.855,30.762,28.809,12.695,0
17671.516,19.531,30.273,31.250,25.879,78.613,0
17671.520,12.695,28.320,24.902,22.949,60.059,0
17671.524,16.602,27.832,22.461,24.414,-10.742,0
17671.528,21.484,30.273,26.367,30.762,19.531,0
17671.532,22.949,32.227,29.785,36.621,21.973,0
17671.536,24.902,27.344,25.391,31.738,52.734,0
17671.540,32.715,23.438,24.414,28.809,65.430,0
17671.544,41.016,27.832,28.809,38.574,-4.883,0
17671.547,33.203,30.273,28.320,38.086,-11.719,0
17671.551,25.391,27.832,21.973,16.113,23.926,0
17671.555,32.715,25.879,23.438,16.113,44.434,0
17671.559,33.691,27.832,27.832,32.227,28.320,0
17671.563,28.809,33.691,29.785,37.109,-4.395,0
17671.567,28.320,31.250,25.879,30.762,23.926,0
17671.571,28.809,27.344,22.461,25.879,32.715,0
17671.575,25.879,27.344,26.855,27.344,-20.996,0
17671.579,20.020,25.879,31.250,31.738,13.184,0
17671.583,20.508,22.949,33.203,38.574,67.383,0
17671.587,22.949,23.438,27.832,30.762,63.477,0
17671.590,22.949,30.273,29.785,28.809,27.832,0
17671.594,17.578,29.297,35.156,32.715,-17.578,0
17671.598,19.531,26.855,31.738,34.180,20.508,0
17671.602,27.344,28.809,24.902,33.203,115.723,0
17671.606,20.020,27.832,21.484,20.020,52.246,0
17671.610,11.230,27.344,22.461,12.207,-10.742,0
17671.614,13.672,28.809,27.344,11.719,-8.301,0
17671.618,21.484,29.297,26.367,18.555,30.762,0
17671.622,21.973,23.926,23.438,20.996,37.109,0
17671.626,15.137,22.461,26.367,25.391,17.090,0
17671.629,21.484,27.832,31.250,32.715,55.664,0
17671.633,30.762,28.320,28.320,32.227,42.969,0
17671.637,27.832,29.785,23.438,27.832,46.875,0
17671.641,20.508,32.227,24.902,20.996,33.691,0
17671.645,16.113,29.785,30.273,28.809,33.691,0
17671.649,24.414,29.785,28.809,33.203,70.801,0
17671.653,37.598,28.320,23.438,25.879,7.324,0
17671.657,37.109,29.297,25.879,30.273,28.809,0
17671.661,32.227,30.273,30.762,36.133,50.781,0
17671.665,36.133,24.902,32.715,32.715,2.441,0
17671.669,45.410,22.461,26.367,19.531,10.254,0
17671.672,43.457,24.414,21.973,12.207,19.531,0
17671.676,26.855,28.320,26.855,25.879,15.625,0
17671.680,26.855,30.762,32.715,36.621,15.137,0
17671.684,34.180,23.438,29.785,22.461,2.930,0
17671.688,21.973,20.508,24.414,13.184,47.852,0
17671.692,24.414,24.414,25.879,23.438,51.758,0
17671.696,27.344,21.484,31.738,27.832,32.227,0
17671.700,29.785,21.973,33.203,26.367,16.602,0
17671.704,38.086,24.902,28.320,22.461,5.371,0
17671.708,27.832,23.926,24.902,21.973,9.277,0
17671.712,21.973,26.855,30.762,29.297,26.367,0
17671.715,22.461,29.297,31.738,30.273,30.273,0
17671.719,20.508,23.926,25.879,24.902,57.617,0
17671.723,20.996,23.438,27.344,22.461,62.500,0
17671.727,20.020,28.320,28.809,25.391,13.672,0
17671.731,17.578,28.809,24.902,26.367,29.297,0
17671.735,20.996,26.855,22.461,23.438,89.844,0
17671.739,31.738,26.367,26.855,25.391,76.172,0
17671.743,32.715,30.273,35.156,30.762,19.043,0
17671.747,25.879,31.250,35.645,31.250,5.371,0
17671.751,29.297,28.809,32.227,26.855,16.113,0
17671.754,32.227,30.273,27.832,24.414,12.695,0
17671.758,20.996,25.879,26.855,26.367,24.902,0
17671.762,15.625,27.344,31.250,27.344,18.066,0
17671.766,20.996,33.691,31.738,22.461,44.922,0
17671.770,30.762,33.691,30.273,24.902,41.016,0
17671.774,26.855,31.250,28.809,25.879,-15.625,1
17671.778,19.531,29.297,30.762,23.438,39.062,0
17671.782,18.066,28.320,34.180,23.926,59.570,0
17671.786,17.090,27.344,28.809,24.414,17.578,0
17671.790,21.973,29.297,26.367,25.391,3.906,0
17671.794,23.926,32.715,29.785,25.391,-7.324,0
17671.797,25.391,33.691,33.203,30.273,38.574,0
17671.801,27.832,29.297,32.227,26.855,92.773,0
17671.805,30.762,28.809,29.297,20.508,47.852,0
17671.809,35.645,33.203,31.738,28.809,75.684,0
17671.813,35.645,36.621,33.691,34.668,68.359,0
17671.817,31.250,32.715,30.273,26.855,3.906,0
17671.821,22.949,26.855,27.344,20.996,42.480,0
17671.825,13.184,27.344,28.809,18.066,82.520,0
17671.829,9.277,28.809,32.715,25.391,97.168,0
17671.833,15.625,28.320,31.250,34.180,90.820,0
17671.837,25.391,27.832,27.832,27.832,76.172,0
17671.840,29.297,29.297,29.297,26.855,39.062,0
17671.844,32.227,30.762,34.180,34.668,29.297,0
17671.848,34.668,30.273,33.203,40.527,52.734,0
17671.852,35.645,26.855,25.391,37.598,63.477,0
17671.856,34.668,30.273,24.414,32.227,29.785,0
17671.860,26.855,34.180,27.344,27.832,-1.953,0
17671.864,23.438,35.156,29.297,28.809,25.879,0
17671.868,25.879,32.227,29.297,31.250,10.742,0
17671.872,28.809,27.344,26.367,28.809,18.555,0
17671.876,24.902,26.855,29.785,32.227,24.902,0
17671.879,19.043,31.738,33.691,38.086,-13.184,0
17671.883,26.855,28.320,31.250,42.480,0.000,0
17671.887,25.879,17.578,24.414,33.203,56.152,0
17671.891,20.508,19.043,23.438,20.996,82.031,0
17671.895,30.273,30.273,25.879,27.344,47.363,0
17671.899,36.621,32.715,26.855,30.762,50.293,0
17671.903,36.621,27.344,25.391,23.926,46.387,0
17671.907,27.344,27.832,25.879,27.344,8.789,0
17671.911,16.602,31.738,28.809,30.762,22.949,0
17671.915,17.090,32.715,28.809,25.391,24.414,0
17671.919,18.066,24.902,24.414,20.020,18.066,0
17671.922,31.250,25.391,24.414,20.996,12.695,0
17671.926,26.367,30.762,25.879,20.508,17.578,0
17671.930,10.254,29.785,25.391,17.578,44.922,0
17671.934,11.230,25.391,21.973,15.137,63.477,0
17671.938,11.719,21.973,18.066,12.695,94.238,0
17671.942,13.184,26.367,24.414,17.090,89.844,0
17671.946,11.719,29.297,27.832,21.484,48.340,0
17671.950,13.672,25.391,23.926,18.555,-9.766,0
17671.954,20.996,22.949,20.996,18.555,15.625,0
17671.958,21.973,25.391,23.438,22.461,58.105,0
17671.962,24.414,31.738,30.273,31.738,18.066,0
17671.965,24.414,28.320,28.809,33.691,-0.488,0
17671.969,21.484,19.531,23.926,25.391,30.762,0
17671.973,24.902,22.461,23.926,24.902,53.711,0
17671.977,27.832,27.832,29.785,34.668,64.941,0
17671.981,35.645,29.785,33.203,38.574,33.203,0
17671.985,45.898,28.320,28.320,28.809,8.789,0
17671.989,41.016,23.926,20.020,25.879,-12.695,0
17671.993,31.738,26.855,21.484,34.668,-23.438,0
17671.997,26.367,27.832,28.320,38.574,39.551,0
17672.001,18.555,24.902,24.414,33.691,67.383,0
17672.004,17.090,25.391,18.066,33.203,19.531,0
17672.008,20.996,24.414,22.461,32.227,19.531,0
17672.012,25.879,22.461,29.297,36.133,51.758,0
17672.016,25.879,23.926,24.414,32.715,46.875,0
17672.020,34.180,27.832,18.066,26.367,52.734,0
17672.024,36.621,31.738,20.996,31.250,59.570,0
17672.028,26.367,35.156,24.414,37.598,45.898,0
17672.032,23.926,35.156,23.438,38.574,55.176,0
17672.036,29.297,31.250,20.020,30.273,4.395,0
17672.040,35.645,29.297,19.531,28.320,24.902,0
17672.044,31.738,32.227,22.949,33.691,49.316,0
17672.047,22.461,31.250,26.367,37.109,31.738,0
17672.051,25.879,24.414,23.438,33.203,37.598,0
17672.055,33.691,26.367,19.043,33.691,35.645,0
17672.059,26.855,31.738,22.949,39.062,33.203,0
17672.063,20.508,33.203,26.855,38.086,-0.488,0
17672.067,22.949,29.297,23.438,28.809,-13.672,0
17672.071,26.855,24.414,23.438,30.273,36.621,0
17672.075,27.832,25.391,23.926,35.156,23.438,0
17672.079,27.344,28.809,28.320,33.691,21.973,0
17672.083,37.598,29.785,33.203,38.574,21.973,0
17672.087,45.898,25.879,28.809,30.762,7.324,0
17672.090,39.551,25.391,29.297,27.832,9.766,0
17672.094,32.227,29.785,32.715,34.180,-1.465,0
17672.098,29.297,32.227,32.715,32.715,43.945,0
17672.102,20.508,30.273,29.785,24.414,45.898,0
17672.106,25.879,27.832,27.832,22.461,8.301,0
17672.110,35.156,29.785,31.738,29.785,-46.387,0
17672.114,34.668,29.785,37.598,40.527,-18.555,0
17672.118,35.156,29.297,36.621,40.039,27.832,0
17672.122,37.109,35.156,32.715,29.785,-33.691,0
17672.126,33.691,37.109,30.273,31.738,-17.090,0
17672.129,35.156,35.645,31.738,35.645,-27.832,0
17672.133,36.133,30.273,30.273,36.133,-34.668,0
17672.137,31.738,27.832,25.879,36.133,0.000,0
17672.141,34.180,31.250,25.879,35.645,38.574,0
17672.145,36.133,30.273,31.250,43.457,-7.324,0
17672.149,33.691,28.809,32.227,41.016,-30.762,0
17672.153,31.250,28.809,24.414,34.180,44.434,0
17672.157,35.156,28.809,23.926,37.109,46.875,0
17672.161,31.250,31.250,29.785,36.133,35.156,0
17672.165,18.555,31.250,33.691,36.133,31.250,0
17672.169,23.926,25.879,31.250,34.668,-12.207,0
17672.172,31.250,24.414,29.297,30.273,-23.438,0
17672.176,20.996,25.879,29.297,30.762,65.918,0
17672.180,24.414,29.785,33.691,39.062,86.426,0
17672.184,30.273,29.785,32.227,33.203,54.199,0
17672.188,22.949,24.414,23.926,25.879,83.496,0
17672.192,15.137,24.414,23.438,31.738,41.504,0
17672.196,20.996,26.855,28.809,31.250,-2.441,0
17672.200,23.438,24.902,25.391,31.250,-14.648,0
17672.204,22.949,23.926,20.020,29.297,-43.945,0
17672.208,25.391,21.973,22.949,21.484,-13.672,0
17672.212,27.832,22.949,27.832,26.367,36.621,0
17672.215,22.949,29.297,28.320,35.156,68.359,0
17672.219,18.066,29.297,26.367,28.320,62.988,0
17672.223,15.137,23.926,25.879,22.949,48.340,0
17672.227,6.348,23.926,26.367,24.414,63.477,0
17672.231,12.695,27.832,29.785,21.973,46.387,0
17672.235,21.484,21.973,27.344,20.020,63.965,0
17672.239,23.926,15.625,25.879,20.020,113.770,0
17672.243,23.438,22.461,30.273,26.367,50.293,0
17672.247,21.484,30.762,34.180,28.809,-25.879,0
17672.251,26.367,26.855,28.809,18.555,15.625,0
17672.254,20.996,22.949,23.926,15.137,52.734,0
17672.258,11.719,27.344,26.855,22.949,62.012,0
17672.262,15.137,29.297,31.738,34.180,25.879,0
17672.266,16.602,24.902,29.785,26.367,-33.691,0
17672.270,15.137,18.066,25.879,20.020,15.625,0
17672.274,13.184,17.578,28.320,24.414,68.848,0
17672.278,18.555,20.996,34.180,29.297,64.453,0
17672.282,22.949,25.879,33.203,27.832,51.758,0
17672.286,23.438,27.832,27.832,24.902,-5.371,0
17672.290,20.996,27.344,28.809,26.367,-1.465,0
17672.294,19.531,29.785,33.691,24.414,62.988,0
17672.297,19.531,32.227,35.156,30.762,38.086,0
17672.301,24.902,28.320,31.738,23.926,-8.301,0
17672.305,30.273,26.367,26.367,18.066,-37.109,0
17672.309,30.273,33.203,28.320,23.926,-3.906,0
17672.313,30.273,34.668,33.691,25.879,-13.672,0
17672.317,24.414,25.879,29.297,21.973,-24.902,0
17672.321,32.715,27.344,26.367,24.902,68.848,0
17672.325,35.645,28.809,26.367,28.320,55.664,0
17672.329,25.879,26.367,28.320,27.344,25.879,0
17672.333,26.855,29.785,29.297,28.320,60.059,0
17672.337,25.879,32.227,21.973,22.949,30.273,0
17672.340,25.879,35.156,22.461,21.484,7.324,0
17672.344,22.461,34.180,27.832,24.902,56.152,0
17672.348,20.020,33.203,29.297,29.297,91.309,0
17672.352,23.926,30.762,28.809,17.090,64.453,0
17672.356,23.438,25.391,26.855,6.836,55.176,0
17672.360,24.902,25.391,29.785,19.043,41.016,0
17672.364,28.320,27.344,33.691,31.250,4.883,0
17672.368,18.066,25.879,32.227,26.367,24.414,0
17672.372,23.438,25.879,28.320,22.461,28.809,0
17672.376,25.391,30.762,29.297,17.578,41.504,0
17672.379,14.160,34.180,34.180,24.902,34.180,0
17672.383,17.090,30.273,29.297,27.832,35.645,0
17672.387,16.602,22.949,23.926,14.648,28.320,0
17672.391,12.695,24.902,27.832,22.461,-7.812,0
17672.395,14.160,31.738,28.809,27.344,30.762,0
17672.399,17.090,29.785,27.344,20.020,41.016,0
17672.403,20.020,21.973,25.879,18.066,17.578,2
17672.407,18.555,18.066,24.414,17.578,-5.859,0
17672.411,19.043,20.996,26.367,21.484,24.414,0
17672.415,20.020,25.879,28.320,26.855,10.254,0
17672.419,16.602,27.344,26.855,29.297,15.625,0
17672.422,28.809,30.273,26.367,28.320,43.945,0
17672.426,37.598,36.133,30.273,29.297,55.176,0
17672.430,28.320,37.598,32.715,24.902,7.324,0
17672.434,28.320,31.738,27.832,23.438,55.664,0
17672.438,32.227,28.809,25.391,25.391,59.082,0
17672.442,28.809,32.227,31.738,26.855,-11.230,0
17672.446,26.855,34.180,33.203,34.668,-29.785,0
17672.450,30.762,30.273,29.297,31.738,30.273,0
17672.454,42.480,27.344,26.367,26.367,58.105,0
17672.458,42.480,28.320,25.879,27.344,2.930,0
17672.462,26.855,33.203,30.273,30.273,-2.930,0
17672.465,22.461,34.180,31.738,33.691,-1.465,0
17672.469,22.949,28.809,25.391,22.461,10.742,0
17672.473,20.020,29.297,24.902,17.578,-0.977,0
17672.477,20.020,35.156,31.250,27.832,1.953,0
17672.481,23.926,36.621,36.621,36.133,61.523,0
17672.485,28.809,28.320,32.227,36.133,26.367,0
17672.489,25.879,26.855,28.320,35.645,5.859,0
17672.493,20.508,33.691,32.715,36.621,67.871,0
17672.497,21.484,35.156,35.156,32.227,46.875,0
17672.501,26.367,32.715,30.762,22.949,27.344,0
17672.504,25.391,28.320,28.320,18.555,37.598,0
17672.508,20.996,30.273,31.738,23.926,25.391,0
17672.512,23.438,35.156,34.668,31.738,35.156,0
17672.516,27.344,35.645,32.227,27.832,32.715,0
17672.520,21.973,32.715,25.879,20.020,6.348,0
17672.524,15.625,26.855,25.391,23.926,54.688,0
17672.528,20.508,28.809,29.297,31.250,34.180,0
17672.532,25.879,32.715,29.297,34.180,13.184,0
17672.536,27.832,30.762,22.461,27.832,11.230,0
17672.540,40.039,34.180,23.926,28.320,56.641,0
17672.544,44.922,39.062,31.738,38.574,50.781,0
17672.547,38.086,39.551,33.203,38.574,-52.246,0
17672.551,33.691,38.574,30.273,27.832,20.996,0
17672.555,34.668,33.203,26.367,21.484,92.773,0
17672.559,26.855,32.227,28.809,24.414,-26.855,0
17672.563,23.438,35.156,34.668,37.598,-49.316,0
17672.567,31.738,30.762,30.273,40.527,9.766,0
17672.571,27.832,24.902,21.973,31.250,26.855,0
17672.575,18.066,27.344,24.902,29.785,38.086,0
17672.579,18.066,34.668,32.715,31.738,10.742,0
17672.583,24.902,38.086,33.691,37.598,20.020,0
17672.587,29.297,34.180,28.809,34.668,23.438,0
17672.590,36.133,33.691,29.785,27.344,18.066,0
17672.594,29.785,34.180,34.668,23.438,33.203,0
17672.598,17.090,33.691,39.062,28.809,40.527,0
17672.602,19.043,32.715,35.156,30.762,-1.465,0
17672.606,20.508,28.809,28.809,28.320,40.039,0
17672.610,22.461,28.320,29.297,30.273,38.574,0
17672.614,22.461,29.785,30.762,22.949,-7.324,0
17672.618,23.926,29.297,27.344,12.695,7.324,0
17672.622,33.203,30.762,23.926,16.602,12.695,0
17672.626,36.133,35.645,29.297,26.855,11.230,0
17672.629,28.320,37.598,34.180,39.062,5.371,0
17672.633,20.508,33.691,28.320,30.273,14.648,0
17672.637,19.043,24.902,20.508,12.207,23.438,0
17672.641,19.531,26.367,25.391,22.461,80.566,0
17672.645,16.113,30.273,29.785,28.320,115.234,0
17672.649,21.973,24.414,26.367,28.809,100.586,0
17672.653,25.391,19.531,22.949,27.344,38.086,0
17672.657,18.066,21.973,26.855,25.879,16.113,0
17672.661,20.508,28.809,32.227,40.039,54.688,0
17672.665,18.555,31.738,34.180,40.039,11.719,0
17672.669,18.555,27.344,28.320,28.809,54.688,0
17672.672,18.555,26.367,23.926,24.414,74.707,0
17672.676,12.695,27.832,29.785,18.555,35.645,0
17672.680,15.137,28.809,35.156,22.461,40.039,0
17672.684,21.484,24.414,30.762,26.855,1.465,0
17672.688,18.555,16.602,24.414,20.996,30.762,0
17672.692,14.648,19.531,25.879,26.367,37.598,0
17672.696,19.531,31.738,30.762,33.203,-50.293,0
17672.700,25.391,31.738,29.297,23.438,-1.953,0
17672.704,25.879,26.855,24.902,16.602,-14.160,0
17672.708,25.391,28.809,26.367,23.926,-20.020,0
17672.712,21.973,27.832,29.785,33.691,72.266,0
17672.715,15.625,25.879,31.250,28.320,85.938,0
17672.719,20.996,22.949,31.250,21.484,33.691,0
17672.723,14.160,21.973,32.227,28.320,24.414,0
17672.727,4.883,27.344,33.691,26.367,59.082,0
17672.731,12.695,32.715,35.156,18.066,27.832,0
17672.735,14.648,29.297,29.785,12.695,20.020,0
17672.739,23.438,24.902,26.367,12.695,8.301,0
17672.743,29.297,26.855,29.785,23.438,10.742,0
17672.747,21.973,29.297,32.227,27.832,26.367,0
17672.751,21.484,27.344,29.785,20.508,39.062,0
17672.754,19.043,27.344,27.832,18.555,45.410,0
17672.758,8.301,28.320,31.738,24.414,-5.859,0
17672.762,5.371,24.902,34.180,29.297,-22.461,0
17672.766,22.461,22.461,30.273,25.879,16.113,0
17672.770,26.855,23.926,25.391,21.484,16.113,0
17672.774,12.207,24.902,25.879,27.344,-18.555,0
17672.778,9.766,27.344,30.273,32.227,14.648,0
17672.782,12.695,31.250,32.715,25.391,64.453,0
17672.786,14.648,26.367,30.273,18.555,40.527,0
17672.790,19.531,24.414,27.832,17.578,24.902,0
17672.794,19.531,27.832,31.250,25.391,41.992,0
17672.797,20.020,30.273,34.668,31.250,-9.277,0
17672.801,22.949,23.926,30.273,26.855,-15.625,0
17672.805,25.879,18.066,27.832,30.762,11.719,0
17672.809,26.855,23.438,30.762,40.039,21.973,0
17672.813,24.902,30.762,31.250,41.016,77.637,0
17672.817,21.484,28.320,25.879,28.320,104.980,0
17672.821,18.555,24.414,19.531,16.113,64.941,0
17672.825,17.090,26.855,23.438,24.902,51.270,0
17672.829,17.090,24.414,26.367,32.715,57.129,0
17672.833,18.555,22.461,21.973,25.879,96.191,0
17672.837,20.996,24.414,19.043,17.090,93.262,0
17672.840,18.555,26.855,21.973,13.184,6.836,0
17672.844,26.855,32.715,27.832,20.020,7.324,0
17672.848,33.203,33.691,27.832,22.949,26.855,0
17672.852,25.879,27.832,24.902,20.996,12.207,0
17672.856,20.996,22.949,23.926,21.484,30.762,0
17672.860,18.555,24.414,26.855,20.508,42.480,0
17672.864,14.648,28.809,28.320,20.996,8.789,0
17672.868,14.648,24.902,23.926,17.578,1.465,0
17672.872,19.043,21.973,20.996,8.789,19.531,0
17672.876,25.879,25.879,22.949,12.695,28.809,0
17672.879,23.926,30.273,28.809,25.391,62.500,0
17672.883,16.602,25.391,26.367,23.926,70.312,0
17672.887,24.414,19.043,18.555,20.508,23.926,0
17672.891,31.738,22.949,22.949,28.809,38.574,0
17672.895,36.621,30.762,31.738,35.645,43.945,0
17672.899,31.738,30.762,32.715,35.156,11.719,0
17672.903,26.855,26.367,25.879,33.691,18.066,0
17672.907,31.738,26.367,24.902,30.762,41.504,0
17672.911,15.625,28.809,28.320,32.227,85.449,0
17672.915,11.230,29.297,29.785,39.062,63.477,0
17672.919,21.973,26.367,26.367,37.598,-3.906,0
17672.922,23.926,23.438,27.344,36.621,31.250,0
17672.926,26.855,25.391,31.738,40.527,78.613,0
17672.930,22.949,29.785,34.180,35.156,32.227,0
17672.934,20.020,28.809,29.785,27.832,2.930,0
17672.938,34.180,26.855,28.809,30.273,33.691,0
17672.942,36.133,31.250,33.203,36.133,30.273,0
17672.946,25.879,32.715,33.691,35.156,48.828,0
17672.950,29.297,28.320,31.250,30.762,38.086,0
17672.954,32.227,25.391,27.344,34.180,3.418,0
17672.958,26.367,25.879,26.855,35.645,15.137,0
17672.962,27.832,29.297,29.785,41.504,4.883,0
17672.965,26.367,28.809,32.227,41.504,37.109,0
17672.969,28.809,23.926,28.809,30.273,48.340,0
17672.973,33.691,26.367,26.367,33.691,31.738,0
17672.977,29.785,33.203,32.715,36.621,31.738,0
17672.981,23.438,35.156,37.109,38.086,18.066,0
17672.985,22.461,32.715,31.250,41.992,13.672,0
17672.989,20.020,31.250,27.344,33.203,79.102,0
17672.993,13.672,31.250,28.809,24.414,33.691,0
17672.997,25.391,31.738,31.738,30.762,-17.578,0
17673.001,33.691,30.273,30.762,35.156,17.090,0
17673.004,24.902,25.879,28.320,32.227,16.113,0
17673.008,20.996,25.879,31.250,29.297,-21.484,0
17673.012,24.414,27.344,36.133,32.715,-19.531,0
17673.016,22.949,28.320,35.156,41.992,35.645,0
17673.020,22.461,27.832,29.785,35.156,39.551,0
17673.024,22.461,29.785,27.832,27.832,14.160,0
17673.028,24.902,31.738,30.762,32.715,38.086,0
17673.032,32.227,31.738,36.621,34.668,-14.648,0
17673.036,31.250,27.344,30.273,27.832,-7.324,0
17673.040,23.438,26.855,24.414,26.855,57.129,0
17673.044,20.508,29.297,29.297,26.855,34.668,0
17673.047,18.066,28.320,33.203,25.879,6.348,0
17673.051,21.973,27.344,30.273,26.855,33.203,0
17673.055,26.855,27.832,25.879,24.902,60.547,0
17673.059,29.785,30.273,27.832,30.273,32.715,0
17673.063,34.668,35.645,32.227,34.180,31.738,0
17673.067,31.738,34.668,29.785,34.180,63.477,0
17673.071,25.391,27.344,24.902,27.344,51.758,1
17673.075,22.949,23.926,23.926,15.625,50.293,0
17673.079,20.508,27.344,28.320,20.020,30.273,0
17673.083,23.438,30.273,25.879,33.203,2.441,0
17673.087,24.902,30.273,22.461,32.715,36.621,0
17673.090,14.648,19.043,29.297,26.367,24.414,0
17673.094,7.324,21.973,41.504,30.273,30.762,0
17673.098,9.277,32.715,40.527,22.461,42.969,0
17673.102,8.301,23.926,26.367,5.371,52.246,0
17673.106,8.789,18.555,22.461,7.812,22.949,0
17673.110,10.254,20.508,27.344,18.555,22.949,0
17673.114,7.812,22.461,29.785,25.391,35.156,0
17673.118,8.789,22.461,24.902,20.996,8.301,0
17673.122,18.555,20.020,20.020,13.184,18.555,0
17673.126,21.484,21.484,20.508,17.090,-7.812,0
17673.129,23.926,24.414,27.344,30.762,26.855,0
17673.133,30.273,26.367,28.809,38.574,64.941,0
17673.137,35.645,27.832,25.879,28.809,12.695,0
17673.141,41.016,26.367,28.320,25.879,2.441,0
17673.145,30.762,28.809,29.785,28.320,27.832,0
17673.149,25.391,30.273,27.344,27.832,-24.902,0
17673.153,28.809,30.273,25.391,34.668,25.879,0
17673.157,25.391,34.668,26.855,39.551,64.453,0
17673.161,21.973,33.691,29.297,35.645,-3.906,0
17673.165,18.555,33.691,28.320,34.180,29.297,0
17673.169,21.973,32.715,23.926,37.598,33.203,0
17673.172,30.273,25.391,24.414,28.320,43.945,0
17673.176,30.273,23.438,26.855,23.438,37.598,0
17673.180,30.762,31.738,28.809,24.902,3.418,0
17673.184,31.738,33.691,26.367,19.043,31.738,0
17673.188,30.762,35.645,22.461,23.438,2.930,0
17673.192,32.715,37.109,26.855,28.320,15.137,0
17673.196,36.133,35.645,32.227,26.367,-14.648,0
17673.200,32.227,35.156,29.297,25.879,-31.250,0
17673.204,35.156,33.203,24.902,31.738,44.434,0
17673.208,40.527,29.297,27.832,35.645,12.695,0
17673.212,36.621,26.367,30.762,34.668,15.625,0
17673.215,25.879,28.320,31.250,34.180,61.035,0
17673.219,25.879,27.832,28.809,28.320,40.527,0
17673.223,32.715,29.297,25.879,16.113,25.879,0
17673.227,30.273,32.715,25.879,20.996,34.180,0
17673.231,25.391,32.715,30.273,34.180,38.574,0
17673.235,29.297,28.809,28.320,20.508,33.203,0
17673.239,34.180,26.855,24.414,11.719,40.039,0
17673.243,34.668,29.785,29.297,20.020,36.133,0
17673.247,28.809,27.832,31.738,24.902,24.902,0
17673.251,17.090,28.320,27.344,26.855,32.227,0
17673.254,26.367,30.273,27.344,30.273,44.922,0
17673.258,23.926,27.832,27.832,23.438,69.336,0
17673.262,20.996,29.297,29.785,15.625,32.715,0
17673.266,29.785,30.762,28.320,17.578,10.742,0
17673.270,29.297,28.320,19.531,11.719,29.785,0
17673.274,18.555,28.320,20.508,8.789,0.488,0
17673.278,20.020,32.227,25.879,19.043,28.320,0
17673.282,27.344,27.832,28.320,26.367,48.828,0
17673.286,21.973,20.996,25.879,25.391,18.555,0
17673.290,25.879,23.438,23.926,23.926,69.824,0
17673.294,20.020,25.879,28.809,25.879,44.922,0
17673.297,20.020,30.273,36.133,25.391,-27.832,0
17673.301,22.949,30.273,33.203,20.020,-3.906,0
17673.305,19.043,23.926,27.832,14.160,35.156,0
17673.309,24.902,26.855,31.250,21.484,-6.836,0
17673.313,24.902,32.715,36.621,21.484,13.672,0
17673.317,19.043,25.391,34.180,13.672,73.242,0
17673.321,21.973,19.043,29.297,18.555,17.090,0
17673.325,25.391,24.414,28.809,26.367,26.367,0
17673.329,19.531,32.227,32.715,31.250,21.484,0
17673.333,15.137,33.691,32.227,34.180,51.270,0
17673.337,20.020,28.320,27.344,31.738,63.477,0
17673.340,22.461,29.297,31.250,33.691,64.941,0
17673.344,33.203,32.715,36.133,40.527,64.453,0
17673.348,38.574,27.344,34.668,34.180,20.508,0
17673.352,27.832,19.531,29.785,28.320,18.066,0
17673.356,21.484,20.020,27.832,24.902,35.156,0
17673.360,21.484,27.832,33.691,28.320,62.500,0
17673.364,27.344,32.227,36.621,36.133,48.340,0
17673.368,29.297,27.832,29.785,30.762,31.250,0
17673.372,27.344,25.391,27.832,19.531,16.113,0
17673.376,23.438,25.879,32.227,19.531,-18.066,0
17673.379,16.602,27.344,35.645,27.832,-29.785,0
17673.383,12.207,20.508,32.227,24.414,-10.254,0
17673.387,11.230,16.113,22.949,21.973,29.785,0
17673.391,12.207,22.461,22.461,23.926,68.848,0
17673.395,18.555,27.832,29.785,27.832,82.031,0
17673.399,22.949,26.855,31.738,26.855,19.531,0
17673.403,19.043,24.902,26.367,23.926,-10.742,0
17673.407,21.484,26.367,25.879,26.855,17.578,0
17673.411,30.762,31.250,30.762,32.715,53.711,0
17673.415,30.273,33.203,31.250,34.180,45.898,0
17673.419,31.738,26.367,27.344,25.879,24.414,0
17673.422,35.645,24.414,26.855,23.438,25.391,0
17673.426,22.461,21.973,31.250,22.461,19.043,0
17673.430,18.555,20.996,35.156,20.508,43.945,0
17673.434,19.043,24.902,33.203,17.090,57.129,0
17673.438,19.043,25.879,27.832,16.113,35.156,0
17673.442,21.973,28.320,30.762,22.461,59.570,0
17673.446,26.855,29.785,35.156,25.391,32.715,0
17673.450,21.973,27.344,33.203,26.855,-16.602,0
17673.454,27.832,23.926,28.809,30.273,40.039,0
17673.458,33.691,24.414,29.297,34.668,55.664,0
17673.462,24.414,27.832,33.203,43.945,-6.836,0
17673.465,24.902,25.879,34.668,48.828,0.977,0
17673.469,30.273,25.391,29.785,38.086,53.711,0
17673.473,33.691,29.785,26.855,33.203,52.734,0
17673.477,31.738,32.715,27.344,37.109,42.969,0
17673.481,27.344,33.691,27.832,33.203,-7.324,0
17673.485,27.832,32.227,27.832,18.066,38.086,0
17673.489,26.855,28.809,27.344,21.973,75.195,0
17673.493,21.973,31.738,31.250,30.762,31.250,0
17673.497,21.973,35.156,34.668,25.391,29.785,0
17673.501,26.855,33.691,30.273,27.344,41.504,0
17673.504,21.973,27.832,29.297,31.738,35.645,0
17673.508,18.066,24.902,31.738,20.996,36.133,0
17673.512,28.809,32.715,41.992,22.949,52.246,0
17673.516,15.137,29.785,39.062,10.254,14.648,0
17673.520,-5.371,26.367,30.273,-5.371,50.781,0
17673.524,-1.465,28.809,36.133,2.441,66.895,0
17673.528,-2.930,32.227,37.109,1.953,-19.531,0
17673.532,-19.531,29.785,31.738,-16.113,-31.250,0
17673.536,-23.438,19.531,30.273,-30.762,8.301,0
17673.540,-33.203,20.020,43.457,-33.691,-2.930,0
17673.544,-48.340,19.531,46.387,-39.551,-18.066,0
17673.547,-45.898,20.508,40.527,-42.969,-29.297,0
17673.551,-52.734,18.555,40.527,-46.875,-0.488,0
17673.555,-57.617,12.207,41.016,-61.035,18.066,0
17673.559,-75.195,18.066,45.410,-74.219,42.969,0
17673.563,-93.750,22.461,54.199,-75.195,21.973,0
17673.567,-92.773,17.578,50.781,-84.473,15.625,0
17673.571,-88.867,11.719,43.945,-93.262,16.113,0
17673.575,-99.121,12.207,46.875,-100.098,-27.832,0
17673.579,-105.957,16.602,52.246,-92.285,-17.090,0
17673.583,-101.074,19.043,53.711,-79.102,-10.254,0
17673.587,-87.891,15.625,50.293,-83.496,33.203,0
17673.590,-78.125,10.742,48.340,-84.473,49.316,0
17673.594,-77.148,12.207,52.246,-81.055,40.527,0
17673.598,-67.871,17.090,50.781,-71.289,81.543,0
17673.602,-64.941,17.090,49.805,-62.988,10.742,0
17673.606,-55.664,16.113,43.945,-56.641,-21.484,0
17673.610,-38.574,20.996,40.527,-43.945,7.812,0
17673.614,-27.344,25.391,46.875,-32.227,18.555,0
17673.618,-21.484,21.973,44.434,-25.879,49.316,0
17673.622,-10.254,18.555,37.598,-21.973,77.637,0
17673.626,3.906,20.508,37.109,-11.719,94.727,0
17673.629,13.184,21.973,42.480,7.324,45.898,0
17673.633,15.137,20.020,40.527,16.113,-24.414,0
17673.637,14.648,20.508,35.156,12.207,18.066,0
17673.641,20.996,25.879,35.156,17.578,50.293,0
17673.645,34.180,29.785,32.715,29.785,56.641,0
17673.649,41.992,29.297,31.250,38.574,46.387,0
17673.653,36.133,22.461,29.785,36.133,47.363,0
17673.657,38.086,22.461,29.297,37.109,55.176,0
17673.661,45.898,28.809,30.273,52.246,16.113,0
17673.665,49.316,33.203,31.738,66.406,29.297,0
17673.669,52.734,24.414,25.391,65.430,18.066,0
17673.672,56.152,16.602,22.461,62.012,18.066,0
17673.676,57.617,22.461,25.879,61.523,46.875,0
17673.680,57.129,29.297,27.344,63.477,39.551,0
17673.684,54.688,23.926,24.414,62.988,37.598,0
17673.688,54.688,18.555,17.578,64.941,53.223,0
17673.692,56.152,23.438,17.090,62.988,33.203,0
17673.696,61.035,27.832,23.926,61.035,13.184,1
17673.700,63.965,23.438,25.879,66.895,101.074,0
17673.704,64.453,20.020,21.484,75.195,96.680,0
17673.708,61.523,21.484,21.484,77.148,42.480,0
17673.712,58.105,24.414,23.926,75.195,66.406,0
17673.715,58.105,25.879,26.367,78.125,35.645,0
17673.719,59.082,23.926,24.902,72.266,-25.391,0
17673.723,64.453,25.879,22.461,66.406,-29.785,0
17673.727,61.523,30.273,22.949,70.312,42.969,0
17673.731,54.199,26.855,23.926,74.707,59.082,0
17673.735,58.105,23.438,19.043,65.430,54.688,0
17673.739,58.594,23.438,17.578,63.965,95.703,0
17673.743,54.199,23.926,24.902,74.707,91.797,0
17673.747,58.105,30.273,26.855,80.566,121.582,0
17673.751,63.477,35.156,23.438,79.102,64.941,0
17673.754,65.430,32.227,19.043,61.523,-39.062,0
17673.758,66.895,33.203,19.531,50.293,0.977,0
17673.762,64.941,38.574,24.414,57.129,54.199,0
17673.766,56.641,36.133,24.902,60.059,44.434,0
17673.770,52.246,31.250,20.020,64.941,59.082,0
17673.774,52.734,30.762,19.531,64.453,88.867,0
17673.778,48.340,30.273,24.414,58.594,27.344,0
17673.782,47.363,28.809,22.949,57.129,20.508,0
17673.786,52.734,27.832,17.578,53.711,30.762,0
17673.790,56.152,30.273,18.066,55.176,19.531,0
17673.794,50.781,32.715,20.996,61.035,19.531,0
17673.797,53.711,34.180,22.461,62.500,8.301,0
17673.801,62.500,32.715,20.508,52.734,44.922,0
17673.805,51.758,29.297,18.066,41.992,41.016,0
17673.809,37.109,29.785,18.555,47.363,5.859,0
17673.813,43.945,33.203,22.461,58.105,35.156,0
17673.817,49.316,33.203,22.461,54.199,21.973,0
17673.821,51.270,25.391,19.531,47.852,62.988,0
17673.825,55.664,23.438,21.973,46.387,49.805,0
17673.829,50.781,29.785,27.344,45.898,-3.418,0
17673.833,42.480,30.273,29.297,46.875,31.250,0
17673.837,40.039,26.855,24.902,49.316,5.859,0
17673.840,40.527,29.785,24.414,46.387,14.160,0
17673.844,43.945,34.668,26.855,42.969,76.660,0
17673.848,44.922,32.715,27.344,42.969,38.574,0
17673.852,46.387,29.785,23.438,40.039,9.277,0
17673.856,49.805,29.297,21.484,42.480,8.789,0
17673.860,43.457,28.809,25.391,41.016,29.297,0
17673.864,36.621,34.668,28.320,41.504,80.078,0
17673.868,30.762,34.180,21.484,41.016,46.387,0
17673.872,33.691,30.762,18.066,35.156,13.672,0
17673.876,37.109,35.156,24.414,41.504,14.160,0
17673.879,37.109,38.086,27.832,52.734,-0.977,0
17673.883,39.551,34.668,24.902,46.387,32.227,0
17673.887,38.086,29.297,20.996,37.109,50.293,0
17673.891,42.480,27.344,20.996,39.062,32.227,0
17673.895,48.340,28.809,24.902,42.480,16.602,0
17673.899,44.434,32.715,28.809,51.270,-14.160,0
17673.903,45.410,29.785,25.879,54.199,-9.277,0
17673.907,42.480,26.367,23.926,47.852,-12.695,0
17673.911,33.691,28.320,28.809,42.969,27.344,0
17673.915,40.039,28.320,29.785,48.828,91.309,0
17673.919,43.945,25.879,25.879,41.016,-5.371,0
17673.922,39.551,25.879,23.438,26.855,-9.766,0
17673.926,35.645,29.785,23.438,31.738,42.969,0
17673.930,31.738,30.762,25.879,37.109,-5.859,0
17673.934,30.762,29.297,25.879,38.574,31.250,0
17673.938,38.574,30.762,21.973,41.992,36.133,0
17673.942,40.527,34.668,23.438,41.016,43.945,0
17673.946,31.250,34.180,28.809,37.598,69.824,0
17673.950,35.156,30.762,27.832,37.109,1.465,0
17673.954,37.109,27.832,20.996,39.062,12.207,0
17673.958,27.344,27.832,21.484,37.598,13.672,0
17673.962,29.785,35.645,26.367,41.504,40.039,0
17673.965,36.621,33.691,24.902,46.387,52.734,0
17673.969,32.715,22.461,20.508,33.691,-0.488,0
17673.973,31.250,23.926,21.973,24.414,18.066,0
17673.977,33.203,34.180,28.809,23.926,-15.137,0
17673.981,31.738,36.621,31.250,28.320,17.578,0
17673.985,34.668,30.762,23.438,28.320,88.379,0
17673.989,33.691,25.879,20.508,22.461,-3.906,0
17673.993,22.461,29.785,28.809,23.926,12.207,0
17673.997,16.113,28.809,31.250,32.715,82.520,0
17674.001,16.602,21.973,25.879,26.855,33.691,0
17674.004,20.020,20.508,22.461,18.066,19.043,0
17674.008,20.020,27.832,23.438,23.438,-1.465,0
17674.012,17.090,36.621,29.297,29.297,-47.852,0
17674.016,16.602,33.203,27.344,36.621,-31.738,0
17674.020,25.391,27.832,22.949,33.691,31.250,0
17674.024,29.785,28.320,26.367,25.391,61.035,0
17674.028,31.738,30.273,30.762,28.320,44.434,0
17674.032,37.109,31.250,30.762,27.344,4.395,0
17674.036,39.062,27.344,25.391,21.973,16.113,0
17674.040,27.344,21.973,25.879,24.902,34.668,0
17674.044,12.207,23.438,29.785,24.902,76.660,0
17674.047,11.719,26.855,29.785,16.602,81.055,0
17674.051,17.578,26.367,28.320,16.602,-9.277,0
17674.055,23.438,27.832,27.832,22.949,-29.785,0
17674.059,22.461,28.809,29.785,19.531,-22.949,0
17674.063,12.207,25.391,31.250,18.066,11.230,0
17674.067,15.625,25.391,26.855,19.531,21.484,0
17674.071,31.738,26.855,21.484,18.066,-21.484,0
17674.075,30.762,26.367,20.020,12.695,-16.113,0
17674.079,23.926,31.250,25.879,21.484,32.715,0
17674.083,24.414,29.785,25.879,27.344,68.359,0
17674.087,23.438,19.043,18.555,19.531,46.387,0
17674.090,22.949,20.996,19.531,20.996,32.227,0
17674.094,25.391,31.250,24.414,25.879,41.016,0
17674.098,30.762,34.180,28.809,40.039,34.180,0
17674.102,36.133,31.250,24.414,36.133,65.430,0
17674.106,33.203,29.297,22.461,23.438,61.523,0
17674.110,32.715,28.809,27.344,28.809,20.020,0
17674.114,27.832,27.344,28.320,34.180,15.625,0
17674.118,16.602,22.461,23.926,26.367,19.043,0
17674.122,18.066,22.461,22.461,18.555,41.016,0
17674.126,26.367,32.227,25.879,20.508,40.039,0
17674.129,29.785,38.574,28.809,25.879,41.016,0
17674.133,23.926,29.297,26.367,20.020,35.645,0
17674.137,19.531,21.973,20.508,7.812,18.066,0
17674.141,20.020,26.367,23.926,12.207,30.273,0
17674.145,19.531,27.832,30.273,19.043,8.789,0
17674.149,17.578,20.020,28.809,20.996,13.672,0
17674.153,21.973,17.578,26.367,20.020,46.387,0
17674.157,20.996,21.973,26.367,16.602,49.316,0
17674.161,19.531,28.320,31.250,23.926,32.227,0
17674.165,20.508,30.762,35.645,35.645,16.602,0
17674.169,22.461,26.367,32.227,34.668,12.207,0
17674.172,24.414,22.949,29.297,29.297,-13.672,0
17674.176,20.996,24.902,36.133,28.809,44.434,0
17674.180,21.973,27.832,41.992,33.203,75.684,0
17674.184,19.043,24.414,35.156,28.809,68.359,0
17674.188,13.672,18.066,29.297,21.973,26.855,0
17674.192,14.648,19.043,32.227,28.809,-18.555,0
17674.196,17.578,26.367,36.133,26.855,7.812,0
17674.200,13.672,29.785,35.156,19.531,35.645,0
17674.204,15.137,28.809,29.297,20.508,51.270,0
17674.208,20.996,31.250,28.320,30.273,73.242,0
17674.212,18.066,32.715,34.180,39.062,39.062,0
17674.215,18.555,30.762,37.109,29.785,-15.625,0
17674.219,22.949,30.273,33.691,29.297,25.391,2
17674.223,26.855,26.367,31.738,40.039,70.312,0
17674.227,30.762,23.438,33.691,30.762,53.223,0
17674.231,30.273,29.297,37.598,25.391,9.766,0
17674.235,33.691,27.344,34.668,25.879,4.395,0
17674.239,35.156,23.926,27.832,28.809,-2.930,0
17674.243,25.879,24.902,31.738,31.738,15.137,0
17674.247,21.973,26.855,34.668,32.227,1.953,0
17674.251,26.855,23.438,29.297,31.738,13.672,0
17674.254,34.180,20.508,23.438,17.578,15.625,0
17674.258,30.273,26.367,25.391,18.555,23.438,0
17674.262,14.160,30.273,30.762,29.297,66.406,0
17674.266,14.160,30.273,28.809,28.809,32.227,0
17674.270,19.043,29.297,22.949,28.809,39.062,0
17674.274,13.672,26.855,23.438,24.414,37.598,0
17674.278,12.695,25.391,28.809,22.949,0.488,0
17674.282,16.602,26.855,35.645,31.738,-9.766,0
17674.286,16.113,25.879,31.250,27.832,55.176,0
17674.290,12.695,26.855,26.367,23.438,63.477,0
17674.294,8.301,32.715,32.715,17.578,25.391,0
17674.297,5.859,33.691,39.062,14.160,44.922,0
17674.301,8.301,26.855,31.738,21.484,30.273,0
17674.305,14.648,22.461,24.414,23.926,12.695,0
17674.309,16.602,25.391,32.715,23.438,23.438,0
17674.313,12.695,29.297,37.598,23.438,19.043,0
17674.317,8.789,24.902,29.785,13.672,42.480,0
17674.321,10.742,20.996,28.320,10.254,94.238,0
17674.325,20.996,20.996,35.156,25.391,63.965,0
17674.329,22.949,22.949,37.598,29.785,41.504,0
17674.333,11.719,25.391,34.180,21.484,81.543,0
17674.337,6.348,23.438,24.902,15.625,79.102,0
17674.340,4.883,24.414,22.949,14.160,36.621,0
17674.344,9.277,30.273,28.320,14.648,75.195,0
17674.348,17.578,32.227,31.250,19.531,34.668,0
17674.352,17.090,28.320,29.785,20.996,3.418,0
17674.356,13.672,25.879,28.809,16.602,12.207,0
17674.360,20.996,25.879,32.715,24.414,-11.230,0
17674.364,20.508,28.809,36.133,36.133,15.137,0
17674.368,13.672,28.809,27.344,26.367,62.500,0
17674.372,12.695,26.855,20.996,10.254,84.961,0
17674.376,19.531,32.227,28.320,14.160,94.238,0
17674.379,19.531,36.621,35.156,18.555,105.957,0
17674.383,10.742,33.691,31.738,8.301,75.195,0
17674.387,16.602,28.320,24.414,5.371,6.348,0
17674.391,24.414,29.297,25.391,14.160,-15.137,0
17674.395,26.855,33.691,32.227,20.508,-41.016,0
17674.399,27.832,32.715,33.691,21.484,-54.199,0
17674.403,28.320,26.855,29.297,14.648,-28.320,0
17674.407,22.949,27.832,28.320,16.602,-25.391,0
17674.411,15.137,33.691,32.715,19.531,0.977,0
17674.415,19.043,33.203,32.227,17.578,13.184,0
17674.419,20.508,26.855,24.902,15.137,57.129,0
17674.422,19.043,26.367,23.438,20.508,88.867,0
17674.426,20.020,30.273,28.320,23.438,62.012,0
17674.430,25.391,34.180,33.691,26.367,49.316,0
17674.434,28.320,31.738,30.762,29.297,56.641,0
17674.438,26.367,31.738,26.855,26.367,38.086,0
17674.442,27.344,29.297,29.297,27.344,-22.461,0
17674.446,24.902,23.926,33.203,22.461,-10.254,0
17674.450,19.531,26.855,31.250,24.414,20.996,0
17674.454,27.344,32.227,28.809,31.250,42.480,0
17674.458,29.785,32.715,29.297,26.367,29.297,0
17674.462,20.996,36.621,31.738,23.926,0.977,0
17674.465,17.090,37.598,31.738,19.043,18.066,0
17674.469,20.996,33.203,23.926,12.695,-4.883,0
17674.473,26.855,31.738,22.461,12.695,9.766,0
17674.477,31.738,33.691,26.855,19.043,23.926,0
17674.481,40.039,33.691,29.297,29.785,-15.137,0
17674.485,36.133,28.809,27.344,28.320,-14.160,0
17674.489,35.645,22.461,28.809,20.508,3.418,0
17674.493,29.785,25.879,33.203,25.391,20.020,0
17674.497,21.484,34.180,34.668,43.945,9.277,0
17674.501,22.949,35.156,34.180,43.457,7.812,0
17674.504,18.066,30.273,30.273,26.855,73.730,0
17674.508,18.066,32.715,29.297,26.855,17.090,0
17674.512,28.320,40.039,32.227,37.109,43.945,0
17674.516,29.297,34.180,29.297,25.879,78.613,0
17674.520,24.414,25.391,22.461,11.230,9.766,0
17674.524,20.020,26.367,23.438,18.555,35.156,0
17674.528,20.508,28.809,28.320,20.020,22.949,0
17674.532,23.438,30.273,28.320,18.555,15.625,0
17674.536,29.297,31.250,25.391,19.043,77.637,0
17674.540,33.203,31.250,25.879,20.020,66.406,0
17674.544,23.438,30.273,26.855,22.461,42.480,0
17674.547,11.719,30.273,24.414,18.066,46.875,0
17674.551,10.742,27.344,21.973,14.648,55.664,0
17674.555,17.090,20.996,22.949,20.508,21.484,0
17674.559,15.137,21.973,25.879,23.438,4.395,0
17674.563,17.090,32.227,30.273,29.297,36.621,0
17674.567,26.855,30.273,26.855,24.902,75.684,0
17674.571,28.809,22.949,21.484,17.578,105.957,0
17674.575,27.344,25.391,23.926,18.066,79.590,0
17674.579,31.250,30.273,29.297,26.855,66.406,0
17674.583,32.715,31.738,32.715,40.527,34.180,0
17674.587,28.320,26.367,23.926,27.832,27.832,0
17674.590,25.391,25.391,22.461,20.508,53.223,0
17674.594,25.879,28.320,30.273,34.668,66.895,0
17674.598,26.367,31.250,28.809,37.598,43.457,0
17674.602,32.227,30.762,25.391,32.227,32.715,0
17674.606,37.109,33.691,21.973,32.227,14.648,0
17674.610,39.551,35.156,25.879,35.645,70.312,0
17674.614,40.039,32.227,32.227,39.551,36.621,0
17674.618,33.691,29.297,28.320,38.086,-0.488,0
17674.622,30.273,26.855,26.855,38.086,52.246,0
17674.626,29.297,26.367,31.250,40.039,-1.465,0
17674.629,28.320,28.320,33.203,42.480,-4.395,0
17674.633,27.344,29.297,31.738,37.109,-36.621,0
17674.637,24.902,27.344,28.320,30.762,-2.441,0
17674.641,18.066,30.273,30.273,33.203,42.480,0
17674.645,15.625,34.180,34.180,31.738,20.020,0
17674.649,19.531,32.227,28.320,28.809,58.594,0
17674.653,20.020,26.855,20.996,27.344,45.410,0
17674.657,20.020,23.438,23.926,21.973,-10.742,0
17674.661,27.344,30.762,33.203,28.320,31.738,0
17674.665,19.531,35.645,32.715,37.598,20.020,0
17674.669,19.531,26.855,22.949,22.949,22.949,0
17674.672,32.715,24.414,22.461,10.742,22.949,0
17674.676,21.484,28.320,27.344,18.066,9.277,0
17674.680,22.949,29.785,28.809,33.691,14.648,0
17674.684,31.738,26.855,27.832,33.691,-18.066,0
17674.688,26.367,21.973,26.367,26.367,47.363,0
17674.692,19.043,20.020,30.762,25.879,80.078,0
17674.696,16.602,24.902,36.133,40.527,39.062,0
17674.700,21.973,29.785,37.598,41.016,55.176,0
17674.704,23.438,27.832,34.180,23.438,81.055,0
17674.708,24.902,27.832,31.738,23.926,84.961,0
17674.712,32.227,33.691,37.109,35.156,67.871,0
17674.715,30.762,30.762,39.062,42.480,-1.465,0
17674.719,23.926,23.438,34.180,41.992,40.527,0
17674.723,18.066,24.414,31.738,38.574,62.500,0
17674.727,19.043,28.320,33.203,31.250,17.578,0
17674.731,14.160,29.785,35.645,26.367,-24.414,0
17674.735,1.465,28.320,30.762,21.973,4.883,0
17674.739,5.859,26.855,24.902,19.043,33.691,0
17674.743,11.230,29.785,27.344,20.020,-19.043,0
17674.747,9.277,30.762,29.785,19.043,0.488,0
17674.751,13.672,26.855,26.367,21.484,24.414,0
17674.754,20.508,27.832,19.043,20.996,1.465,0
17674.758,21.973,26.855,20.508,21.484,44.922,0
17674.762,17.090,25.391,26.855,23.438,63.965,0
17674.766,12.695,27.832,25.391,16.113,16.113,0
17674.770,21.484,29.785,23.438,23.438,8.301,0
17674.774,24.902,31.738,24.414,25.879,12.695,0
17674.778,19.531,36.621,29.785,24.414,20.996,0
17674.782,23.926,37.598,30.762,28.320,54.688,0
17674.786,30.273,31.250,23.926,20.996,53.223,2
17674.790,21.973,26.367,22.461,19.531,4.395,0
17674.794,19.531,25.879,27.832,27.344,16.602,0
17674.797,23.438,27.832,30.762,25.391,55.176,0
17674.801,32.227,28.320,28.809,26.367,49.805,0
17674.805,37.109,24.902,27.344,32.227,13.672,0
17674.809,30.762,28.320,30.762,32.227,41.992,0
17674.813,22.461,28.809,33.691,29.785,57.129,0
17674.817,23.926,20.996,29.785,24.414,43.457,0
17674.821,25.391,24.414,23.438,19.531,13.672,0
17674.825,18.555,28.809,26.367,20.020,12.207,0
17674.829,19.043,26.855,29.785,34.668,24.414,0
17674.833,23.926,25.879,26.367,36.133,-12.695,0
17674.837,29.785,25.391,20.996,21.973,-22.461,0
17674.840,36.133,31.250,20.996,21.973,17.578,0
17674.844,27.344,34.668,28.809,29.297,53.711,0
17674.848,17.090,30.762,32.227,27.832,57.129,0
17674.852,20.996,30.762,27.832,24.902,24.414,0
17674.856,21.484,29.297,24.414,22.949,24.414,0
17674.860,22.461,25.879,28.809,23.926,38.086,0
17674.864,20.996,23.438,29.785,23.926,40.527,0
17674.868,18.066,21.973,24.414,16.113,46.387,0
17674.872,24.902,23.438,22.461,19.043,33.691,0
17674.876,19.531,27.832,24.414,18.066,29.297,0
17674.879,17.578,31.250,26.367,30.273,23.926,0
17674.883,24.414,33.691,27.832,47.363,23.926,0
17674.887,29.297,32.715,25.879,35.645,26.367,0
17674.891,26.855,31.738,23.438,18.555,57.129,0
17674.895,14.160,31.738,23.926,12.695,63.477,0
17674.899,14.160,30.762,25.391,16.602,29.785,0
17674.903,16.113,27.344,23.438,15.625,45.410,0
17674.907,14.648,26.367,22.461,15.625,31.250,0
17674.911,20.996,30.762,25.391,17.578,31.250,0
17674.915,24.902,32.227,26.855,27.344,65.918,0
17674.919,29.297,30.273,22.461,27.832,67.871,0
17674.922,25.391,28.809,24.414,14.648,25.391,0
17674.926,7.812,29.297,31.738,13.672,28.320,0
17674.930,9.277,29.297,35.156,19.531,13.184,0
17674.934,17.578,27.832,30.762,18.555,-13.184,0
17674.938,16.602,25.391,23.438,16.602,-5.859,0
17674.942,20.996,25.391,27.832,19.043,16.602,0
17674.946,23.926,25.879,35.645,21.973,48.828,0
17674.950,22.949,23.926,33.203,23.926,40.527,0
17674.954,28.320,22.461,29.297,23.438,31.250,0
17674.958,32.227,27.344,29.785,27.832,41.016,0
17674.962,25.879,34.668,36.133,36.621,44.922,0
17674.965,27.832,32.227,37.109,32.227,5.859,0
17674.969,47.852,27.832,28.809,21.973,15.625,0
17674.973,39.062,27.832,24.902,20.996,58.105,0
17674.977,13.672,29.785,29.785,25.879,31.738,0
17674.981,13.184,30.273,35.645,31.738,12.695,0
17674.985,15.625,20.996,32.715,25.879,65.430,0
17674.989,14.648,19.043,27.344,20.508,7.812,0
17674.993,16.602,28.320,27.832,25.879,-10.742,0
17674.997,20.508,31.250,30.762,26.855,60.547,0
17675.001,23.438,28.320,30.762,24.414,21.973,0
17675.004,26.367,27.344,28.320,25.879,-27.344,0
17675.008,20.996,31.250,28.809,27.832,18.555,0
17675.012,10.254,31.250,29.785,24.414,64.453,0
17675.016,15.137,27.344,29.785,26.855,64.941,0
17675.020,27.832,25.879,27.344,32.227,59.570,0
17675.024,30.762,25.391,28.320,32.227,52.734,0
17675.028,24.902,26.855,31.738,27.832,19.043,0
17675.032,17.578,30.762,30.762,29.297,18.555,0
17675.036,16.602,29.297,23.438,25.391,13.672,0
17675.040,22.949,26.855,23.438,29.785,-13.672,0
17675.044,24.414,32.227,30.273,37.109,66.406,0
17675.047,28.320,37.109,34.668,39.062,102.051,0
17675.051,30.273,33.691,30.273,32.715,26.855,0
17675.055,25.879,32.715,25.391,25.879,42.480,0
17675.059,29.785,35.156,29.785,35.645,26.855,0
17675.063,35.156,35.156,37.109,42.969,-0.977,0
17675.067,33.203,31.250,33.691,34.180,12.207,0
17675.071,32.715,24.902,24.414,26.855,54.199,0
17675.075,24.902,25.879,22.461,25.879,46.387,0
17675.079,22.949,31.250,28.320,24.414,31.250,0
17675.083,34.180,31.250,34.668,25.879,75.684,0
17675.087,36.621,27.344,33.691,32.715,64.941,0
17675.090,25.391,25.879,31.738,37.109,61.035,0
17675.094,23.438,27.344,34.668,38.086,45.410,0
17675.098,30.273,27.832,36.133,34.668,53.223,0
17675.102,27.344,22.461,32.715,31.250,43.945,0
17675.106,24.414,21.973,31.738,34.668,53.223,0
17675.110,37.109,31.250,36.621,42.969,78.613,0
17675.114,37.598,34.668,38.574,40.039,-18.555,0
17675.118,25.391,29.297,35.156,25.391,-22.461,0
17675.122,24.902,27.344,33.691,20.996,45.410,0
17675.126,23.926,29.297,36.133,23.438,60.547,0
17675.129,23.438,30.762,39.551,33.691,19.531,0
17675.133,25.391,29.297,36.621,30.762,-0.977,0
17675.137,20.020,27.344,32.715,20.508,11.230,0
17675.141,18.555,27.344,35.156,29.297,-35.156,0
17675.145,20.020,26.367,39.551,32.227,-15.625,0
17675.149,25.879,29.297,39.062,25.391,55.664,0
17675.153,31.250,32.715,33.691,23.926,42.480,0
17675.157,35.156,31.738,30.762,31.250,-9.277,0
17675.161,40.039,34.668,31.738,35.645,28.809,0
17675.165,33.691,35.156,33.203,33.691,5.371,0
17675.169,25.391,27.832,28.809,24.414,21.973,0
17675.172,28.320,28.809,26.855,30.273,78.125,0
17675.176,27.344,29.297,30.762,40.527,55.664,0
17675.180,25.391,31.250,32.715,40.527,31.738,0
17675.184,24.902,35.156,27.344,31.250,36.133,0
17675.188,25.391,31.738,22.461,19.043,80.566,0
17675.192,20.020,28.809,26.367,18.066,34.668,0
17675.196,14.648,30.762,32.715,18.066,5.859,0
17675.200,18.555,32.227,33.691,22.949,17.090,0
17675.204,20.996,27.344,27.832,22.461,13.672,0
17675.208,14.160,27.344,23.926,18.066,24.414,0
17675.212,17.090,32.227,27.832,22.949,34.668,0
17675.215,25.879,29.785,31.738,25.879,42.969,0
17675.219,22.461,24.414,28.320,28.320,71.777,0
17675.223,27.832,26.855,29.297,23.438,73.242,0
17675.227,24.414,27.344,33.691,20.996,57.617,0
17675.231,24.902,29.297,36.133,40.527,78.125,0
17675.235,26.367,29.785,31.250,37.109,85.938,0
17675.239,23.926,28.320,29.297,20.508,38.086,0
17675.243,32.715,35.156,31.738,22.461,-3.418,0
17675.247,31.738,38.574,33.203,33.691,-4.395,0
17675.251,29.297,30.273,30.273,40.039,51.270,0
17675.254,35.645,25.879,24.902,29.785,-17.090,0
17675.258,26.855,30.762,27.832,20.508,-31.250,0
17675.262,18.066,33.203,31.250,26.855,57.129,0
17675.266,28.809,28.809,27.832,34.180,43.945,0
17675.270,34.180,26.855,24.414,33.203,16.602,0
17675.274,27.344,30.762,25.879,30.762,48.340,0
17675.278,22.949,29.297,32.227,34.180,60.059,0
17675.282,24.902,26.855,34.668,43.945,32.715,0
17675.286,27.832,27.832,30.762,40.039,20.996,0
17675.290,25.879,28.809,30.273,29.297,14.648,0
17675.294,27.344,30.762,34.668,29.297,53.223,0
17675.297,28.320,33.203,37.109,25.879,20.996,0
17675.301,24.414,29.297,32.227,20.996,15.137,0
17675.305,24.414,27.832,29.297,23.926,59.082,0
17675.309,24.902,31.738,33.691,30.762,34.180,0
17675.313,22.461,30.273,34.668,30.762,4.883,0
17675.317,24.902,25.879,29.785,25.391,33.203,0
17675.321,30.273,20.996,27.344,24.902,64.453,0
17675.325,26.367,21.973,29.297,28.809,36.133,0
17675.329,20.996,27.832,29.297,28.809,25.391,0
17675.333,20.996,31.250,25.391,30.273,32.227,0
17675.337,26.367,28.320,21.484,24.414,37.598,0
17675.340,27.344,26.367,22.461,23.926,87.402,0
17675.344,26.367,26.855,26.367,31.250,55.664,0
17675.348,32.715,27.344,31.250,31.250,15.137,0
17675.352,39.551,25.391,25.879,22.949,1.465,0
17675.356,41.504,26.855,22.949,25.391,-16.602,0
17675.360,34.180,28.809,30.273,34.668,1.953,0
17675.364,22.949,26.367,38.086,42.969,34.668,0
17675.368,22.461,24.902,34.180,36.133,-24.902,0
17675.372,25.879,24.414,28.320,23.438,-18.066,0
17675.376,27.832,26.855,31.250,31.738,42.480,0
17675.379,31.738,32.227,37.598,41.992,26.367,2
17675.383,31.250,30.762,33.691,35.645,51.270,0
17675.387,27.344,25.391,24.414,25.391,45.898,0
17675.391,26.855,27.344,25.879,27.832,18.555,0
17675.395,32.715,25.391,31.250,40.039,15.137,0
17675.399,31.250,24.414,30.762,43.457,49.316,0
17675.403,38.086,28.320,27.832,31.738,61.523,0
17675.407,42.480,32.715,27.832,32.227,33.203,0
17675.411,32.715,31.250,29.297,40.039,3.418,0
17675.415,26.855,29.297,26.855,40.527,-28.320,0
17675.419,31.738,28.320,21.484,38.086,15.137,0
17675.422,35.156,28.809,22.461,30.273,16.113,0
17675.426,29.297,27.832,27.832,24.414,28.809,0
17675.430,25.879,29.297,34.180,25.879,94.727,0
17675.434,34.180,32.227,31.250,24.902,72.754,0
17675.438,39.551,32.227,27.832,26.367,-4.883,0
17675.442,31.738,36.133,32.227,36.621,-27.832,0
17675.446,21.484,36.621,35.645,35.156,5.859,0
17675.450,21.973,28.809,31.738,20.020,41.504,0
17675.454,26.855,22.949,27.344,15.137,-9.766,0
17675.458,18.066,22.949,29.297,22.949,-67.871,0
17675.462,18.066,28.320,33.691,26.855,2.441,0
17675.465,28.320,27.344,33.691,32.715,-2.930,0
17675.469,31.738,21.973,28.809,39.551,1.465,0
17675.473,23.438,24.902,30.273,28.320,12.207,0
17675.477,18.555,30.762,34.668,26.367,29.785,0
17675.481,22.461,34.668,38.574,28.809,94.727,0
17675.485,17.578,31.738,34.668,17.090,79.590,0
17675.489,9.277,28.320,28.809,14.648,50.781,0
17675.493,15.137,31.250,31.738,24.414,21.484,0
17675.497,29.785,32.715,37.598,37.598,-16.602,0
17675.501,23.438,27.832,35.645,32.715,34.668,0
17675.504,14.648,25.879,30.762,24.902,40.039,0
17675.508,14.648,28.320,30.762,19.531,21.484,0
17675.512,16.602,30.273,32.715,20.508,82.031,0
17675.516,19.531,27.832,30.762,19.531,64.941,0
17675.520,27.344,23.926,24.414,15.137,93.262,0
17675.524,34.180,26.367,23.926,21.484,59.082,0
17675.528,25.391,30.273,27.832,24.414,37.598,0
17675.532,13.184,30.762,31.250,18.555,66.895,0
17675.536,14.648,27.344,26.367,16.113,66.895,0
17675.540,12.207,22.461,23.438,22.949,85.449,0
17675.544,6.836,23.926,30.762,22.949,47.852,0
17675.547,19.043,30.273,34.180,21.973,-12.695,0
17675.551,20.020,28.320,28.809,18.555,-2.441,0
17675.555,13.184,25.879,23.438,14.160,13.184,0
17675.559,14.160,29.297,27.344,20.020,40.527,0
17675.563,20.996,34.180,33.203,33.691,40.527,0
17675.567,31.250,34.180,29.785,44.434,55.664,0
17675.571,32.715,28.809,25.391,38.574,41.016,0
17675.575,27.344,28.809,26.367,28.809,59.082,0
17675.579,22.949,30.273,32.227,24.902,77.637,0
17675.583,25.391,26.855,34.668,20.020,-14.648,0
17675.587,23.438,23.926,28.320,14.648,-0.977,0
17675.590,23.438,29.297,28.809,21.484,47.852,0
17675.594,32.715,35.645,30.273,25.879,34.668,0
17675.598,38.574,35.645,27.344,26.855,-9.277,0
17675.602,24.414,30.273,24.902,23.926,24.414,0
17675.606,14.648,26.367,24.414,20.996,45.410,0
17675.610,18.066,31.250,26.855,25.879,35.645,0
17675.614,17.090,31.738,32.227,31.738,42.480,0
17675.618,21.484,25.391,33.691,39.062,-6.836,0
17675.622,20.020,20.508,32.227,29.785,-4.883,0
17675.626,16.602,25.391,33.691,19.531,1.953,0
17675.629,20.996,33.691,33.203,31.250,39.062,0
17675.633,24.414,30.762,30.273,36.621,86.914,0
17675.637,21.484,23.438,25.879,27.832,20.020,0
17675.641,23.926,23.926,28.809,25.879,-27.832,0
17675.645,21.973,28.809,32.715,27.344,-47.852,0
17675.649,19.043,27.832,26.855,18.555,-11.230,0
17675.653,28.320,21.484,21.484,20.508,13.672,0
17675.657,28.809,24.414,21.484,32.227,-16.113,0
17675.661,20.508,31.738,24.902,33.691,-1.953,0
17675.665,18.555,31.250,27.832,29.297,-7.324,0
17675.669,21.973,28.320,23.926,20.508,4.883,0
17675.672,25.391,27.344,22.949,18.555,42.480,0
17675.676,24.414,26.855,22.461,17.090,21.973,0
17675.680,24.902,29.297,24.414,20.508,38.574,0
17675.684,21.484,30.762,25.879,26.367,51.270,0
17675.688,20.020,24.902,22.461,29.297,46.875,0
17675.692,15.137,21.973,24.414,35.645,98.145,0
17675.696,10.254,23.438,28.320,26.855,77.637,0
17675.700,15.625,25.879,28.809,20.996,14.648,0
17675.704,23.926,24.902,22.949,31.738,55.176,0
17675.708,27.832,23.438,24.902,36.133,63.477,0
17675.712,24.414,28.320,29.785,29.785,41.016,0
17675.715,24.414,31.250,28.320,17.578,-4.395,0
17675.719,28.809,30.762,23.438,14.160,-57.129,0
17675.723,25.391,26.855,22.461,18.066,-22.949,0
17675.727,20.996,26.367,28.809,20.508,31.250,0
17675.731,23.438,30.762,31.738,27.832,13.184,0
17675.735,28.320,31.738,27.832,27.344,-13.184,0
17675.739,25.391,29.785,25.391,24.902,52.246,0
17675.743,20.508,30.273,26.855,31.250,49.805,0
17675.747,20.508,35.156,27.832,35.645,19.531,0
17675.751,25.391,32.715,22.949,30.762,50.781,0
17675.754,26.367,28.320,20.020,21.973,57.617,0
17675.758,25.391,28.809,23.926,28.320,76.660,0
17675.762,34.668,29.785,30.273,39.551,51.758,0
17675.766,34.180,33.691,33.203,33.691,38.574,0
17675.770,20.996,32.227,27.832,23.926,60.547,0
17675.774,22.461,31.738,26.367,26.855,48.340,0
17675.778,31.250,33.691,31.738,33.203,29.785,0
17675.782,34.668,29.785,33.691,30.762,27.344,0
17675.786,27.344,25.391,26.367,28.809,38.086,0
17675.790,20.508,25.391,25.879,25.879,8.301,0
17675.794,27.832,29.785,34.180,25.879,-1.465,0
17675.797,34.180,29.785,37.598,31.250,-0.977,0
17675.801,27.344,23.926,34.180,32.227,28.809,0
17675.805,20.508,23.438,29.297,35.645,62.988,0
17675.809,17.090,28.809,30.762,35.645,55.176,0
17675.813,21.484,33.203,36.133,33.691,34.180,0
17675.817,28.320,32.227,31.738,26.367,52.246,0
17675.821,31.738,30.273,26.855,22.461,65.918,0
17675.825,28.320,28.809,30.273,15.137,64.453,0
17675.829,19.531,29.785,30.762,13.184,73.730,0
17675.833,24.414,28.809,32.715,23.438,40.527,0
17675.837,32.227,22.949,26.855,21.973,33.203,0
17675.840,26.855,27.832,27.344,19.043,13.672,0
17675.844,33.203,33.691,34.180,23.438,9.277,0
17675.848,33.203,30.762,34.668,33.691,-8.789,0
17675.852,9.277,26.855,28.809,30.762,24.902,0
17675.856,8.789,27.344,25.391,22.461,56.152,0
17675.860,23.438,34.668,30.273,25.879,9.766,0
17675.864,23.926,35.645,30.762,35.156,9.277,0
17675.868,24.414,27.344,26.855,27.832,23.438,0
17675.872,35.645,27.832,24.902,17.090,-4.883,0
17675.876,36.621,35.156,28.320,31.250,-7.324,0
17675.879,30.273,39.062,36.621,44.434,44.434,0
17675.883,23.926,30.762,34.668,39.062,73.242,0
17675.887,23.438,21.973,27.832,29.297,21.484,1
17675.891,26.367,23.438,29.785,27.832,57.129,0
17675.895,27.832,28.809,35.156,41.992,68.848,0
17675.899,28.320,25.391,35.156,47.852,15.625,0
17675.903,25.879,20.020,28.320,28.809,1.465,0
17675.907,24.414,24.902,25.879,23.438,-1.465,0
17675.911,35.645,32.227,34.180,36.621,45.410,0
17675.915,35.645,32.715,38.574,39.551,36.133,0
17675.919,17.090,27.832,31.250,31.250,19.043,0
17675.922,19.531,23.926,28.809,28.809,73.242,0
17675.926,29.785,25.879,32.227,34.180,89.355,0
17675.930,25.879,27.832,35.156,32.715,37.598,0
17675.934,19.043,23.438,33.691,25.879,47.363,0
17675.938,19.531,21.484,29.785,29.297,33.691,0
17675.942,21.973,27.832,31.738,25.391,-32.227,0
17675.946,24.414,31.738,32.715,21.973,-15.625,0
17675.950,24.414,27.832,30.762,24.902,35.156,0
17675.954,19.043,21.973,27.344,19.531,19.043,0
17675.958,19.531,22.949,28.320,22.461,3.906,0
17675.962,25.391,26.855,34.180,34.668,-14.160,0
17675.965,23.926,25.391,32.227,30.762,43.945,0
17675.969,17.090,21.484,24.902,19.531,146.973,0
17675.973,16.602,21.973,23.926,20.996,103.516,0
17675.977,23.926,22.461,30.273,22.461,55.176,0
17675.981,31.738,25.879,34.180,24.902,66.406,0
17675.985,31.250,28.320,30.762,23.926,73.730,0
17675.989,33.691,28.320,26.367,21.484,41.016,0
17675.993,27.344,29.297,31.250,23.926,-17.578,0
17675.997,18.555,29.785,36.621,29.785,52.734,0
17676.001,31.250,29.785,32.715,27.832,68.359,0
17676.004,34.180,28.320,26.855,26.855,-35.156,0
17676.008,22.461,28.809,24.414,25.391,-12.695,0
17676.012,15.137,28.809,27.344,22.949,-11.230,0
17676.016,18.555,25.879,27.344,26.367,-21.484,0
17676.020,29.785,27.344,23.926,25.879,26.855,0
17676.024,26.367,31.738,22.461,24.414,12.695,0
17676.028,21.973,36.621,25.391,30.762,14.160,0
17676.032,27.344,36.133,26.367,25.879,72.754,0
17676.036,22.461,29.297,23.438,17.578,76.172,0
17676.040,17.090,25.391,24.414,24.902,25.879,0
17676.044,20.508,26.367,30.273,33.203,53.223,0
17676.047,24.414,27.832,32.227,26.367,39.062,0
17676.051,30.273,27.832,29.785,22.461,1.465,0
17676.055,23.438,26.367,29.785,26.855,24.902,0
17676.059,11.719,27.344,29.785,31.250,20.508,0
17676.063,14.648,30.273,33.203,29.297,29.297,0
17676.067,23.926,27.344,33.691,25.879,47.363,0
17676.071,18.555,22.461,28.809,23.926,55.664,0
17676.075,16.602,26.855,27.832,18.066,43.457,0
17676.079,26.855,34.180,33.203,19.531,38.086,0
17676.083,30.762,34.180,34.668,18.555,-38.574,0
17676.087,29.785,28.809,27.832,18.066,-63.965,0
17676.090,24.414,29.297,28.320,20.996,2.930,0
17676.094,19.043,32.227,34.180,19.531,-23.926,0
17676.098,19.531,30.273,33.691,20.020,-0.977,0
17676.102,33.691,28.320,29.785,24.902,103.027,0
17676.106,36.621,26.855,26.855,30.273,61.035,0
17676.110,31.250,25.879,27.344,34.180,-11.230,0
17676.114,36.621,31.738,29.297,43.945,-16.602,0
17676.118,26.855,32.715,29.297,41.504,22.949,0
17676.122,27.832,32.715,29.785,28.320,62.500,0
17676.126,34.180,33.203,30.762,30.273,41.016,0
17676.129,27.344,29.297,30.273,34.668,16.113,0
17676.133,32.227,24.902,28.809,24.414,2.930,0
17676.137,32.715,25.879,26.367,25.879,23.438,0
17676.141,26.367,28.320,28.320,32.715,64.453,0
17676.145,28.320,27.832,33.691,28.320,20.996,0
17676.149,22.949,24.902,33.691,28.809,-26.855,0
17676.153,22.461,26.855,28.320,31.250,-20.020,0
17676.157,27.832,32.227,29.785,33.691,28.320,0
17676.161,28.320,34.180,32.715,39.551,41.504,0
17676.165,30.273,35.645,32.715,37.109,-3.906,0
17676.169,35.156,33.203,28.320,31.250,-27.832,0
17676.172,32.227,29.297,28.809,29.785,30.762,0
17676.176,32.715,31.250,34.180,31.738,46.387,0
17676.180,32.227,33.203,38.086,36.133,47.363,0
17676.184,30.273,31.738,35.645,36.621,54.688,0
17676.188,36.133,29.297,29.297,39.062,31.250,0
17676.192,41.504,31.250,31.738,42.480,34.180,0
17676.196,44.922,34.668,37.109,34.668,36.621,0
17676.200,36.133,32.715,35.645,33.203,-3.906,0
17676.204,33.691,28.320,32.227,36.621,6.836,0
17676.208,29.785,29.297,30.273,36.621,72.266,0
17676.212,25.879,31.738,30.273,39.551,36.133,0
17676.215,25.879,28.320,30.273,36.133,17.578,0
17676.219,25.391,27.344,27.344,31.738,42.969,0
17676.223,31.250,25.879,27.344,33.203,41.504,0
17676.227,34.180,26.855,30.273,30.762,44.922,0
17676.231,31.250,32.227,30.273,28.809,12.207,0
17676.235,31.250,29.785,23.926,25.391,23.438,0
17676.239,30.762,26.855,20.020,29.785,18.066,0
17676.243,29.297,29.785,22.949,37.109,-27.344,0
17676.247,21.484,35.156,28.809,30.273,-1.465,0
17676.251,15.625,33.203,29.785,27.344,31.250,0
17676.254,20.508,26.367,25.391,29.785,2.930,0
17676.258,26.855,26.367,25.879,30.762,63.965,0
17676.262,34.668,29.785,31.250,40.527,64.941,0
17676.266,34.180,25.391,28.809,41.504,40.527,0
17676.270,28.809,21.484,22.949,39.062,73.730,0
17676.274,27.832,27.344,24.414,41.992,80.078,0
17676.278,31.738,32.227,29.785,36.621,13.184,0
17676.282,28.809,32.715,33.203,35.645,6.348,0
17676.286,22.461,31.738,26.855,35.156,74.707,0
17676.290,24.414,30.273,23.438,32.227,19.043,0
17676.294,23.438,30.762,28.809,41.504,21.973,0
17676.297,21.484,31.738,30.273,42.969,76.172,0
17676.301,23.926,25.879,28.320,25.879,62.012,0
17676.305,25.391,20.020,27.344,22.949,96.191,0
17676.309,23.926,24.414,29.297,23.926,55.664,0
17676.313,18.066,30.273,32.227,23.438,-18.066,0
17676.317,15.137,29.785,30.273,19.043,21.484,0
17676.321,21.484,28.320,23.926,16.113,66.895,0
17676.325,18.555,31.250,24.414,16.602,73.730,0
17676.329,12.207,34.180,33.203,20.020,70.312,0
17676.333,8.789,31.250,30.762,23.926,27.344,0
17676.337,10.254,24.414,23.926,19.043,19.531,0
17676.340,15.137,22.461,22.949,10.254,2.930,0
17676.344,19.043,29.785,26.855,16.602,19.531,0
17676.348,13.672,36.133,33.203,28.320,51.758,0
17676.352,19.531,32.715,28.809,30.273,-15.625,0
17676.356,31.738,31.250,26.367,30.762,-1.953,0
17676.360,29.785,36.621,34.180,29.297,76.660,0
17676.364,25.391,35.156,35.645,25.879,23.926,0
17676.368,26.855,26.367,26.367,27.832,6.348,0
17676.372,26.855,25.391,25.879,28.809,42.969,0
17676.376,25.879,31.738,31.738,28.809,46.875,0
17676.379,23.926,36.621,35.156,30.273,61.523,0
17676.383,21.484,33.691,32.227,22.949,31.738,0
17676.387,20.508,28.320,27.344,18.066,-6.836,0
17676.391,17.578,28.320,28.809,27.832,-28.320,0
17676.395,18.066,31.250,31.250,27.344,2.930,0
17676.399,18.555,28.809,32.715,21.484,36.621,0
17676.403,18.555,25.391,29.785,24.414,37.598,0
17676.407,21.484,25.879,28.320,29.785,8.301,0
17676.411,25.391,25.391,33.691,36.133,7.812,0
17676.415,24.414,25.391,37.598,34.180,-1.465,0
17676.419,18.066,22.461,31.250,18.066,22.461,0
17676.422,17.578,24.902,27.344,19.043,28.809,0
17676.426,15.625,28.809,29.297,17.578,61.035,0
17676.430,15.625,27.832,32.227,8.301,38.086,0
17676.434,18.555,24.414,28.809,13.184,-15.137,0
17676.438,18.066,23.438,22.949,22.949,0.977,0
17676.442,23.438,24.414,28.320,31.738,21.484,0
17676.446,23.926,23.438,33.691,28.320,23.926,0
17676.450,15.137,21.484,31.250,26.367,18.555,0
17676.454,16.602,18.066,27.832,29.297,58.594,0
17676.458,22.461,17.090,29.785,26.855,35.645,0
17676.462,20.508,22.949,30.762,21.973,-35.156,0
17676.465,20.508,27.344,28.809,26.367,6.836,0
17676.469,21.973,26.367,27.832,28.320,40.527,0
17676.473,23.926,25.879,28.320,23.438,66.406,0
17676.477,26.855,32.227,32.227,26.855,45.410,0
17676.481,28.320,35.645,36.133,32.227,5.371,0
17676.485,32.715,31.250,30.273,26.855,29.785,0
17676.489,28.809,23.926,25.391,20.996,46.875,0
17676.493,21.484,23.926,31.250,31.738,10.254,0
17676.497,22.949,29.785,37.109,39.551,5.859,0
17676.501,26.855,32.715,33.691,33.691,14.160,0
17676.504,26.855,30.273,25.879,25.879,7.812,0
17676.508,26.367,30.762,26.855,21.484,29.297,0
17676.512,31.738,37.109,34.668,29.297,7.812,1
17676.516,27.344,35.156,32.227,37.109,10.742,0
17676.520,21.973,30.273,27.832,34.668,50.781,0
17676.524,32.227,33.203,29.785,26.367,20.020,0
17676.528,36.621,39.062,34.668,32.227,8.301,0
17676.532,31.738,39.551,38.574,39.551,16.602,0
17676.536,27.832,31.738,32.715,30.762,58.105,0
17676.540,28.320,29.297,26.855,24.414,62.500,0
17676.544,30.762,36.133,32.227,32.227,-9.277,0
17676.547,33.203,38.086,35.645,30.762,8.301,0
17676.551,28.809,33.203,30.762,20.996,73.242,0
17676.555,17.090,27.832,25.879,21.973,24.414,0
17676.559,18.066,30.762,30.762,31.250,3.418,0
17676.563,25.391,33.691,37.598,36.621,47.852,0
17676.567,21.973,30.762,33.691,33.691,32.227,0
17676.571,19.531,27.832,27.344,27.832,34.668,0
17676.575,18.555,22.949,28.809,30.273,62.012,0
17676.579,15.625,25.879,32.227,29.297,34.180,0
17676.583,17.090,31.738,35.156,25.879,-23.926,0
17676.587,21.973,29.297,29.785,23.438,36.621,0
17676.590,24.414,28.809,27.344,23.438,49.805,0
17676.594,29.785,34.668,31.738,35.156,11.230,0
17676.598,40.039,39.062,32.715,33.691,24.902,0
17676.602,45.410,33.203,28.809,26.855,41.504,0
17676.606,40.039,28.809,26.855,39.062,48.340,0
17676.610,30.762,33.691,29.297,39.062,37.598,0
17676.614,21.973,31.250,29.297,32.227,19.531,0
17676.618,24.902,28.320,26.367,26.367,54.688,0
17676.622,29.785,29.297,26.367,25.879,47.852,0
17676.626,30.273,32.227,28.320,26.855,17.578,0
17676.629,29.297,33.203,27.832,26.855,49.316,0
17676.633,20.996,30.273,27.344,30.273,22.949,0
17676.637,19.531,24.902,22.949,28.809,25.391,0
17676.641,25.391,26.855,20.508,31.738,41.016,0
17676.645,26.367,30.762,25.879,41.016,-10.742,0
17676.649,30.762,29.785,25.391,37.109,10.742,0
17676.653,37.598,28.320,22.949,32.227,81.055,0
17676.657,36.621,29.297,25.879,29.297,68.848,0
17676.661,24.902,33.691,26.367,28.809,75.684,0
17676.665,17.090,30.273,27.344,31.250,84.473,0
17676.669,22.949,20.996,27.832,25.879,12.695,0
17676.672,33.203,23.438,27.832,21.973,27.344,0
17676.676,27.832,31.738,28.320,29.785,78.613,0
17676.680,25.391,36.133,32.227,41.504,38.574,0
17676.684,35.156,34.180,30.273,41.992,-22.461,0
17676.688,38.574,33.203,28.320,26.367,-10.742,0
17676.692,36.621,36.621,31.250,22.461,1.953,0
17676.696,29.785,37.598,35.156,26.855,23.926,0
17676.700,23.926,29.785,32.715,17.578,58.105,0
17676.704,21.973,20.996,24.902,17.578,22.949,0
17676.708,13.184,22.949,24.902,24.414,2.930,0
17676.712,17.578,30.273,32.715,34.180,3.906,0
17676.715,24.414,32.227,34.668,38.086,4.395,0
17676.719,19.531,28.809,32.715,36.621,10.742,0
17676.723,24.414,28.809,35.156,36.133,16.602,0
17676.727,29.297,32.227,32.715,29.297,39.551,0
17676.731,25.391,34.668,35.645,26.367,20.020,0
17676.735,27.832,30.762,36.133,26.855,12.695,0
17676.739,26.367,25.391,32.715,22.949,22.949,0
17676.743,14.648,22.949,33.691,23.926,-19.043,0
17676.747,17.090,26.367,35.156,31.738,-31.250,0
17676.751,22.949,28.809,31.738,30.762,-6.348,0
17676.754,24.414,25.879,25.391,26.367,-17.090,0
17676.758,25.879,25.879,28.320,36.133,0.000,0
17676.762,22.461,29.785,36.133,33.691,75.684,0
17676.766,20.996,31.738,31.250,24.902,97.656,0
17676.770,31.738,32.227,23.438,34.180,57.129,0
17676.774,36.621,27.344,25.391,34.180,13.184,0
17676.778,27.344,23.438,30.762,32.715,-11.719,0
17676.782,30.762,27.832,34.668,33.691,37.598,0
17676.786,36.621,27.832,29.785,22.461,53.223,0
17676.790,33.691,25.879,27.344,20.020,37.109,0
17676.794,28.320,31.250,32.227,24.414,32.715,0
17676.797,21.973,33.203,35.156,26.367,45.410,0
17676.801,19.531,27.832,28.320,24.414,14.648,0
17676.805,24.902,26.855,23.926,22.949,47.852,0
17676.809,32.715,29.785,30.762,25.391,126.465,0
17676.813,22.461,32.715,36.133,34.668,40.039,0
17676.817,13.672,31.250,30.273,35.156,13.184,0
17676.821,22.461,24.902,26.367,22.949,13.672,0
17676.825,26.367,28.320,30.762,21.973,28.809,0
17676.829,32.715,35.645,35.645,28.320,15.625,0
17676.833,36.133,34.180,32.715,34.180,-4.395,0
17676.837,40.527,30.273,27.344,33.691,8.789,0
17676.840,46.875,30.273,31.738,29.785,36.621,0
17676.844,41.016,35.156,37.598,33.203,44.434,0
17676.848,31.250,33.203,35.645,32.227,20.508,0
17676.852,24.902,23.926,30.273,24.902,11.719,0
17676.856,29.785,24.414,27.344,24.414,-1.465,0
17676.860,27.344,32.715,33.691,26.855,15.625,0
17676.864,22.949,35.645,35.156,28.809,20.508,0
17676.868,19.043,30.273,27.832,25.391,-13.672,0
17676.872,12.207,24.414,26.855,28.320,16.113,0
17676.876,16.602,23.438,28.809,33.203,82.520,0
17676.879,24.902,28.320,32.715,31.738,28.320,0
17676.883,30.273,29.297,32.227,27.344,9.277,0
17676.887,30.762,24.414,27.832,29.785,45.898,0
17676.891,30.762,23.926,32.715,35.156,20.996,0
17676.895,27.832,30.273,38.086,39.062,41.992,0
17676.899,28.320,34.668,35.645,40.527,68.848,0
17676.903,29.785,32.715,33.691,29.297,86.914,0
17676.907,31.250,32.227,32.227,27.344,66.406,0
17676.911,36.133,35.156,34.180,35.645,56.152,0
17676.915,27.832,36.133,35.645,36.133,85.938,0
17676.919,20.508,33.691,30.762,30.273,63.477,0
17676.922,31.250,31.250,32.227,28.809,14.160,0
17676.926,28.809,30.273,38.086,31.738,37.109,0
17676.930,20.508,24.902,35.645,31.250,32.715,0
17676.934,21.973,23.438,30.273,27.832,29.785,0
17676.938,20.020,28.320,28.320,26.367,83.984,0
17676.942,19.531,32.227,30.762,26.855,70.801,0
17676.946,16.602,36.133,33.691,31.250,55.176,0
17676.950,13.184,34.668,32.227,31.738,62.012,0
17676.954,16.602,28.320,24.902,14.648,20.020,0
17676.958,23.926,30.273,20.508,27.832,-39.551,0
17676.962,30.762,34.668,24.414,46.387,26.367,0
17676.965,31.250,29.297,25.391,28.320,59.570,0
17676.969,29.785,26.367,24.414,20.020,10.742,0
17676.973,35.645,32.227,26.855,25.391,6.836,0
17676.977,25.879,34.668,28.320,22.461,-35.156,0
17676.981,14.160,28.809,31.250,25.391,-4.883,0
17676.985,16.602,23.438,27.344,24.414,75.195,0
17676.989,17.578,23.926,23.438,20.020,-6.348,0
17676.993,16.602,26.855,31.250,27.344,-0.977,0
17676.997,15.625,26.855,36.133,32.715,65.918,0
17677.001,21.484,24.414,31.250,35.156,46.387,0
17677.004,29.785,22.461,25.391,33.691,57.617,0
17677.008,22.949,21.973,25.879,31.250,69.336,0
17677.012,14.648,20.020,29.297,37.598,44.434,0
17677.016,18.066,15.625,29.785,33.203,34.668,0
17677.020,24.902,15.137,23.926,22.461,71.777,0
17677.024,24.414,20.996,23.926,29.297,24.902,0
17677.028,23.438,28.809,31.250,34.668,18.066,0
17677.032,26.367,29.297,30.273,33.203,37.598,0
17677.036,31.250,23.926,24.414,28.320,20.020,0
17677.040,31.250,23.438,21.973,27.832,24.902,0
17677.044,24.902,25.391,26.367,33.691,-14.160,0
17677.047,20.508,21.484,29.297,34.668,65.918,0
17677.051,31.738,20.996,23.438,36.621,123.535,0
17677.055,39.062,23.438,21.484,35.156,22.461,0
17677.059,24.414,27.344,25.879,32.715,44.434,0
17677.063,20.020,29.297,29.297,34.180,40.039,0
17677.067,27.344,27.344,26.855,36.133,22.949,2
17677.071,39.062,24.902,22.949,32.227,47.363,0
17677.075,38.574,26.367,23.926,25.879,34.668,0
17677.079,27.344,32.227,25.391,33.203,26.855,0
17677.083,28.320,32.227,25.879,35.645,18.066,0
17677.087,28.320,23.438,21.973,26.367,35.156,0
17677.090,26.367,21.973,22.949,21.973,30.762,0
17677.094,26.855,29.297,26.855,29.297,37.109,0
17677.098,27.832,34.180,28.809,42.969,10.254,0
17677.102,31.250,32.227,23.926,36.133,-1.465,0
17677.106,33.691,31.738,20.508,26.367,33.691,0
17677.110,32.227,35.156,24.902,26.367,21.973,0
17677.114,31.738,33.691,28.809,31.250,2.930,0
17677.118,31.738,30.762,26.367,32.227,9.766,0
17677.122,33.203,28.320,20.996,26.855,47.852,0
17677.126,27.832,25.391,23.438,24.414,36.621,0
17677.129,24.414,24.902,30.762,25.879,-3.906,0
17677.133,26.855,25.391,28.809,28.809,65.430,0
17677.137,31.250,24.414,23.926,27.344,48.828,0
17677.141,29.297,24.902,25.879,25.391,17.578,0
17677.145,14.160,27.832,28.809,23.438,37.598,0
17677.149,9.766,28.320,28.809,29.785,-0.977,0
17677.153,19.043,23.926,21.484,31.738,42.969,0
17677.157,20.020,26.367,20.508,26.855,69.336,0
17677.161,14.648,29.297,27.344,32.715,35.645,0
17677.165,16.113,27.832,28.809,29.785,62.012,0
17677.169,14.648,24.414,24.414,14.160,37.598,0
17677.172,16.113,23.438,22.461,13.672,3.418,0
17677.176,19.043,30.762,26.367,19.531,18.066,0
17677.180,16.602,33.691,27.832,23.438,16.113,0
17677.184,18.066,28.809,21.973,20.996,10.254,0
17677.188,17.578,27.344,18.555,17.578,17.090,0
17677.192,18.555,31.738,25.879,17.090,30.273,0
17677.196,24.414,36.621,30.762,23.438,25.391,0
17677.200,27.832,29.785,26.367,24.902,30.273,0
17677.204,20.996,22.461,21.973,14.160,20.020,0
17677.208,20.020,27.344,23.926,15.625,-19.043,0
17677.212,25.391,35.645,25.879,19.043,-29.785,0
17677.215,27.344,36.621,26.367,27.344,-8.301,0
17677.219,22.461,30.762,23.926,26.855,84.473,0
17677.223,17.578,27.344,23.926,22.461,64.453,0
17677.227,18.066,31.250,27.832,28.320,-25.391,0
17677.231,25.391,33.691,30.762,32.715,11.719,0
17677.235,29.297,26.855,25.879,28.809,33.691,0
17677.239,23.438,21.484,22.949,30.273,78.613,0
17677.243,19.043,27.832,27.344,32.227,92.773,0
17677.247,28.320,33.691,32.227,30.273,44.434,0
17677.251,29.785,31.250,31.738,29.297,77.148,0
17677.254,22.949,27.832,29.785,22.949,64.941,0
17677.258,21.484,24.414,30.273,20.508,11.230,0
17677.262,22.949,27.344,29.785,25.391,-0.977,0
17677.266,24.414,31.738,24.902,27.344,6.348,0
17677.270,32.715,28.809,20.996,32.715,10.254,0
17677.274,35.156,30.273,24.902,39.062,43.457,0
17677.278,20.508,31.738,30.762,31.250,27.344,0
17677.282,10.254,31.250,35.156,25.391,4.883,0
17677.286,8.789,31.250,30.273,20.508,46.387,0
17677.290,23.926,29.785,25.879,21.973,45.898,0
17677.294,34.180,30.762,29.297,33.691,30.273,0
17677.297,29.785,37.598,32.227,43.457,-17.578,0
17677.301,22.949,33.691,28.320,40.527,0.977,0
17677.305,18.555,20.020,22.461,22.949,72.266,0
17677.309,19.531,20.508,22.949,22.461,37.598,0
17677.313,17.578,31.250,28.809,28.320,24.414,0
17677.317,15.137,32.227,26.367,22.461,39.551,0
17677.321,19.531,30.273,23.438,25.879,45.898,0
17677.325,25.879,31.250,26.367,28.809,35.645,0
17677.329,24.414,31.250,28.320,28.320,57.129,0
17677.333,27.344,33.203,23.926,29.297,74.707,0
17677.337,27.832,31.250,20.508,29.297,73.730,0
17677.340,30.762,25.879,24.902,32.715,45.410,0
17677.344,31.250,25.879,27.832,32.715,4.883,0
17677.348,21.973,28.809,31.250,24.414,4.883,0
17677.352,26.367,27.832,28.320,20.508,-7.812,0
17677.356,25.879,26.367,24.414,20.508,29.297,0
17677.360,22.461,30.273,32.715,22.461,8.789,0
17677.364,26.367,33.203,37.109,27.832,50.293,0
17677.368,20.020,24.902,27.344,25.391,111.328,0
17677.372,15.137,21.484,19.043,28.320,79.590,0
17677.376,16.602,24.414,20.996,27.344,47.852,0
17677.379,19.043,23.438,30.273,28.320,42.969,0
17677.383,19.531,23.926,33.203,28.809,39.062,0
17677.387,29.297,26.855,25.391,24.414,30.273,0
17677.391,39.551,29.297,27.344,29.297,11.230,0
17677.395,26.367,31.250,32.227,35.645,-4.395,0
17677.399,18.066,31.738,30.273,35.156,-3.906,0
17677.403,16.113,28.320,28.320,26.367,6.348,0
17677.407,13.184,27.344,26.855,20.996,42.480,0
17677.411,17.578,33.203,30.273,26.367,-3.906,0
17677.415,21.973,33.691,34.668,31.250,0.488,0
17677.419,25.879,26.855,30.273,24.414,21.484,0
17677.422,23.438,24.902,26.855,20.508,21.484,0
17677.426,12.207,28.809,30.762,26.855,18.066,0
17677.430,14.648,33.203,33.203,29.297,22.949,0
17677.434,20.996,31.738,27.832,26.367,102.539,0
17677.438,29.297,26.855,25.879,27.344,85.449,0
17677.442,31.738,28.809,28.320,30.273,47.852,0
17677.446,20.508,33.691,30.762,24.902,-30.273,0
17677.450,19.531,33.203,30.273,20.996,-5.371,0
17677.454,33.691,29.297,28.320,27.832,81.543,0
17677.458,39.062,31.738,28.320,35.645,36.621,0
17677.462,33.203,34.668,33.203,43.945,19.531,0
17677.465,26.855,30.762,32.227,42.480,8.301,0
17677.469,20.996,22.949,26.855,24.414,17.578,0
17677.473,25.391,20.508,30.273,19.043,42.480,0
17677.477,23.926,28.320,31.250,20.020,27.832,0
17677.481,10.254,31.738,28.809,19.043,48.828,0
17677.485,13.672,26.855,26.855,16.602,44.922,0
17677.489,21.484,28.320,27.832,10.254,-2.441,0
17677.493,19.043,34.668,33.203,16.602,22.949,0
17677.497,19.531,30.273,34.180,23.926,-0.488,0
17677.501,24.414,23.438,30.762,27.344,-25.879,0
17677.504,33.203,24.414,28.320,26.855,-42.969,0
17677.508,35.645,28.320,30.762,28.320,6.348,0
17677.512,31.250,34.180,31.738,35.156,54.199,0
17677.516,32.715,30.273,27.344,24.414,0.488,0
17677.520,30.762,25.391,26.367,21.973,-7.812,0
17677.524,28.320,26.367,30.273,25.879,13.672,0
17677.528,33.691,26.855,31.250,29.297,33.203,0
17677.532,33.691,28.809,32.227,33.203,47.363,0
17677.536,31.250,31.738,27.344,30.273,75.195,0
17677.540,24.902,30.762,24.414,31.738,90.820,0
17677.544,21.484,31.738,28.809,39.062,72.754,0
17677.547,28.320,31.738,28.809,41.016,41.992,0
17677.551,24.902,23.926,24.902,33.691,21.484,0
17677.555,25.879,24.414,21.484,28.320,45.410,0
17677.559,30.273,31.250,24.414,33.203,20.508,0
17677.563,26.367,36.133,29.785,42.480,37.598,0
17677.567,25.879,31.250,26.855,35.645,64.453,0
17677.571,27.344,23.926,20.020,28.809,39.551,0
17677.575,29.785,23.438,21.484,28.809,9.277,0
17677.579,37.598,29.785,28.809,29.297,26.855,0
17677.583,33.203,29.785,31.250,26.855,14.160,0
17677.587,19.531,20.996,25.391,18.555,10.742,0
17677.590,22.949,24.414,22.461,16.113,18.066,0
17677.594,21.973,32.715,26.855,19.531,56.641,0
17677.598,20.508,33.203,30.762,24.902,61.035,0
17677.602,26.367,30.762,29.785,24.414,43.457,0
17677.606,26.367,28.320,26.367,30.273,26.855,0
17677.610,25.879,30.762,28.320,34.180,-9.277,0
17677.614,25.879,36.133,33.691,30.762,6.348,0
17677.618,19.531,36.133,30.762,29.785,-28.809,0
17677.622,13.672,33.203,28.320,28.320,-25.879,0
17677.626,18.555,31.250,32.227,27.832,-22.949,0
17677.629,29.785,33.203,35.645,36.133,11.230,0
17677.633,35.645,34.668,33.691,37.598,73.242,0
17677.637,29.297,30.762,26.855,31.738,63.965,0
17677.641,18.066,33.203,31.250,34.180,18.066,0
