timestamps,TP9,AF7,AF8,TP10,Marker0
1594889095.669,-30.273,377.441,213.379,-50.293,0
1594889095.673,-29.785,426.270,108.398,-49.316,0
1594889095.677,-20.020,85.938,-50.293,-36.621,0
1594889095.681,-14.648,-14.648,-18.066,-34.180,0
1594889095.685,-12.207,195.801,123.535,-38.574,0
1594889095.689,-14.648,52.246,35.645,-36.621,0
1594889095.693,-26.855,-184.082,-99.121,-27.344,0
1594889095.696,-30.762,-111.328,-112.305,-20.508,0
1594889095.700,-20.996,-707.031,-380.859,-11.719,0
1594889095.704,-18.555,-671.875,-246.094,-12.695,0
1594889095.708,-26.855,93.750,90.332,-25.391,0
1594889095.712,-26.855,185.547,70.801,-29.297,0
1594889095.726,-30.273,-197.754,-126.465,-33.691,0
1594889095.730,-33.691,-444.824,-145.996,-37.109,0
1594889095.734,-36.621,69.336,114.746,-43.457,0
1594889095.738,-41.016,206.543,55.176,-54.688,0
1594889095.742,-34.668,111.328,62.500,-61.035,0
1594889095.746,-24.414,-308.105,-153.809,-51.270,0
1594889095.750,-27.344,-434.082,-198.242,-44.922,0
1594889095.753,-29.297,86.426,65.918,-58.105,0
1594889095.757,-25.391,240.234,94.727,-63.965,0
1594889095.761,-26.855,218.262,111.328,-63.477,0
1594889095.765,-25.391,-217.285,-64.941,-57.129,0
1594889095.769,-23.926,-172.852,-17.090,-45.898,0
1594889095.763,-26.367,247.070,103.516,-40.527,0
1594889095.767,-28.320,218.750,100.586,-32.227,0
1594889095.771,-28.809,104.004,64.453,-21.973,0
1594889095.775,-37.109,-150.879,-82.520,-28.320,0
1594889095.779,-41.992,-94.727,-82.031,-25.879,0
1594889095.783,-46.387,-303.711,-241.211,-16.113,0
1594889095.787,-49.805,-312.012,-158.691,-16.113,0
1594889095.790,-50.293,-190.430,-36.133,-29.297,0
1594889095.794,-56.641,-858.887,-472.656,-33.203,0
1594889095.798,-54.688,-757.812,-400.391,-24.902,0
1594889095.802,-41.504,118.652,79.590,-19.531,0
1594889095.806,-37.598,322.266,114.746,-26.855,0
1594889095.819,-41.992,-35.645,-39.062,-41.016,0
1594889095.823,-37.109,-39.551,-3.906,-38.574,0
1594889095.827,-35.156,290.039,122.070,-33.691,0
1594889095.831,-37.598,297.363,114.746,-30.273,0
1594889095.835,-38.086,169.922,52.246,-34.668,0
1594889095.839,-40.527,-491.211,-282.715,-37.109,0
1594889095.843,-31.738,-656.738,-305.176,-31.250,0
1594889095.846,-16.113,19.043,53.223,-28.320,0
1594889095.850,-18.066,230.957,87.891,-30.762,0
1594889095.854,-24.414,145.508,-1.465,-38.574,0
1594889095.858,-17.578,-539.062,-343.262,-33.203,0
1594889095.862,-9.766,-697.266,-261.719,-28.809,0
1594889095.857,-12.207,237.793,209.473,-36.621,0
1594889095.861,-27.344,479.004,159.180,-40.527,0
1594889095.865,-27.344,181.152,8.789,-41.504,0
1594889095.869,-23.438,12.695,23.438,-42.969,0
1594889095.873,-33.203,259.766,137.695,-41.016,0
1594889095.877,-30.273,-26.855,-103.516,-33.203,0
1594889095.881,-29.297,-486.328,-313.965,-26.367,0
1594889095.884,-35.156,-347.656,-158.203,-24.902,0
1594889095.888,-36.621,-722.168,-295.898,-20.996,0
1594889095.892,-37.598,-826.172,-363.281,-25.879,0
1594889095.896,-45.410,-117.676,-52.246,-36.621,0
1594889095.900,-37.598,293.457,145.020,-36.621,0
1594889095.913,-22.949,48.828,-20.996,-35.156,0
1594889095.917,-28.320,-198.730,-120.605,-35.156,0
1594889095.921,-32.227,178.711,67.383,-37.598,0
1594889095.925,-29.785,227.539,74.219,-41.016,0
1594889095.929,-24.414,240.234,93.262,-40.039,0
1594889095.933,-19.531,-438.965,-243.652,-31.738,0
1594889095.937,-22.461,-728.027,-371.094,-33.691,0
1594889095.940,-26.367,-121.582,-133.301,-35.645,0
1594889095.944,-27.344,39.062,17.578,-31.738,0
1594889095.948,-25.879,71.289,38.086,-37.109,0
1594889095.952,-28.320,-366.211,-162.109,-37.109,0
1594889095.956,-36.133,-514.648,-151.855,-33.203,0
1594889095.952,-37.109,-96.191,-29.785,-34.180,0
1594889095.956,-23.438,141.113,75.684,-25.879,0
1594889095.960,-18.066,26.367,-13.672,-24.414,0
1594889095.964,-39.062,-489.746,-246.582,-37.109,0
1594889095.968,-47.852,-300.781,-134.277,-39.551,0
1594889095.972,-30.273,-76.172,15.137,-29.297,0
1594889095.976,-37.598,-18.066,83.008,-29.297,0
1594889095.979,-50.293,92.285,46.387,-28.809,0
1594889095.983,-51.758,-779.785,-417.480,-21.973,0
1594889095.987,-55.176,-624.512,-240.234,-28.320,0
1594889095.991,-47.852,409.180,188.965,-30.273,0
1594889095.995,-40.527,402.832,83.984,-27.832,0
1594889096.007,-41.016,-34.180,-108.887,-35.645,0
1594889096.011,-35.156,-68.359,-86.914,-31.250,0
1594889096.015,-32.227,193.359,77.637,-28.320,0
1594889096.019,-36.133,194.824,25.879,-36.621,0
1594889096.023,-34.180,113.281,-29.297,-39.551,0
1594889096.027,-28.809,-557.129,-326.660,-31.738,0
1594889096.031,-30.762,-895.508,-321.289,-35.645,0
1594889096.034,-30.273,-322.754,-17.578,-48.340,0
1594889096.038,-23.926,24.902,17.090,-50.293,0
1594889096.042,-23.926,35.156,30.273,-52.246,0
1594889096.046,-23.926,-104.980,3.906,-57.617,0
1594889096.050,-24.902,-44.922,20.508,-56.152,0
1594889096.044,-31.250,-18.555,-11.719,-53.711,0
1594889096.048,-34.180,-24.902,-11.230,-52.734,0
1594889096.052,-26.855,-17.090,17.090,-53.223,0
1594889096.056,-26.855,72.754,37.109,-48.828,0
1594889096.060,-40.527,295.898,124.512,-45.410,0
1594889096.064,-35.645,106.445,73.730,-38.086,0
1594889096.068,-26.367,-224.609,-88.867,-27.832,2
1594889096.071,-20.020,-226.074,-50.293,-25.391,0
1594889096.075,-19.531,-674.316,-356.445,-24.414,0
1594889096.079,-31.738,-965.332,-541.016,-24.902,0
1594889096.083,-26.855,-434.082,-201.172,-30.273,0
1594889096.087,-14.160,-76.660,-48.828,-30.273,0
1594889096.101,-18.555,-128.418,-120.605,-31.738,0
1594889096.105,-21.484,-269.531,-305.664,-32.715,0
1594889096.109,-21.973,-184.082,-228.516,-29.297,0
1594889096.113,-17.578,-146.973,-94.238,-32.715,0
1594889096.117,-12.207,51.270,73.242,-31.738,0
1594889096.121,-17.090,-539.551,-304.199,-29.297,0
1594889096.125,-24.902,-719.727,-335.449,-32.227,0
1594889096.128,-23.926,-87.891,-4.883,-26.855,0
1594889096.132,-27.832,-115.234,-18.555,-26.855,0
1594889096.136,-29.785,8.789,17.578,-30.273,0
1594889096.140,-27.344,-307.617,-184.082,-32.715,0
1594889096.144,-27.832,-287.109,-46.387,-40.527,0
1594889096.138,-20.508,139.160,110.840,-37.109,0
1594889096.142,-15.137,106.934,68.359,-33.691,0
1594889096.146,-17.578,1.465,-22.461,-41.016,0
1594889096.150,-21.973,-435.547,-171.875,-34.180,0
1594889096.154,-15.625,-228.516,26.855,-36.133,0
1594889096.158,-10.742,-75.195,-52.734,-38.086,0
1594889096.162,-19.043,-236.328,-183.594,-37.109,0
1594889096.165,-22.461,-54.199,-59.082,-40.527,0
1594889096.169,-24.902,-737.305,-357.422,-30.273,0
1594889096.173,-25.391,-706.055,-270.508,-27.832,0
1594889096.177,-28.809,-149.902,-28.809,-34.668,0
1594889096.181,-28.320,-14.160,42.480,-35.645,0
1594889096.194,-21.973,2.930,0.488,-33.691,0
1594889096.198,-20.508,-305.176,-143.066,-28.809,0
1594889096.202,-28.809,-67.383,-8.301,-32.715,0
1594889096.206,-32.715,-37.598,-89.844,-32.227,0
1594889096.210,-29.297,64.453,18.066,-26.855,0
1594889096.214,-34.668,-307.617,-132.812,-26.855,0
1594889096.218,-48.828,-544.922,-272.461,-27.344,0
1594889096.221,-54.688,-134.766,-67.871,-23.926,0
1594889096.225,-46.875,2.441,44.434,-24.902,0
1594889096.229,-38.574,290.039,135.254,-35.645,0
1594889096.233,-32.715,-131.836,-40.039,-35.156,0
1594889096.237,-33.203,-238.281,-7.324,-39.062,0
1594889096.233,-34.180,83.496,60.547,-42.480,0
1594889096.237,-27.832,-200.684,-100.098,-42.480,0
1594889096.241,-29.785,-237.305,-145.020,-47.363,0
1594889096.245,-36.621,-331.055,-202.637,-45.410,0
1594889096.249,-34.668,-208.984,-75.684,-44.434,0
1594889096.253,-31.738,-238.281,-104.980,-44.434,0
1594889096.257,-31.250,-297.363,-152.344,-45.410,0
1594889096.260,-32.715,-21.484,4.395,-50.293,0
1594889096.264,-26.367,-727.539,-388.184,-36.133,0
1594889096.268,-11.719,-581.543,-241.699,-29.785,0
1594889096.272,-7.324,435.059,222.168,-34.180,0
1594889096.276,-7.812,635.254,185.547,-26.367,0
1594889096.288,-24.414,231.934,-6.836,-25.391,0
1594889096.292,-42.969,-92.285,-88.867,-28.809,0
1594889096.296,-41.016,168.457,116.211,-34.180,0
1594889096.300,-35.645,171.875,106.934,-27.832,0
1594889096.304,-37.109,-90.332,-87.891,-19.043,0
1594889096.308,-38.574,-657.715,-401.855,-21.484,0
1594889096.312,-30.762,-962.402,-408.203,-23.438,0
1594889096.315,-28.320,-219.727,40.039,-29.785,0
1594889096.319,-32.715,196.777,89.844,-37.598,0
1594889096.323,-32.227,86.426,38.574,-35.156,0
1594889096.327,-29.297,30.762,26.855,-31.738,0
1594889096.331,-30.273,89.355,37.598,-37.598,0
1594889096.326,-32.227,218.262,94.238,-41.016,0
1594889096.330,-38.574,139.648,39.062,-41.992,0
1594889096.334,-35.156,-17.090,-21.973,-42.969,0
1594889096.338,-31.738,-97.168,4.395,-45.410,0
1594889096.342,-35.645,56.641,80.566,-41.016,0
1594889096.346,-36.133,-135.742,-94.727,-43.945,0
1594889096.350,-34.180,-237.793,-138.672,-48.828,0
1594889096.353,-30.762,1.465,41.992,-41.016,0
1594889096.357,-31.738,-609.863,-312.988,-36.133,0
1594889096.361,-36.133,-936.035,-439.453,-34.180,0
1594889096.365,-31.738,-149.414,21.973,-32.227,0
1594889096.369,-29.785,279.297,149.414,-32.227,0
1594889096.382,-30.762,112.305,14.648,-34.180,0
1594889096.386,-29.785,-71.289,-137.695,-30.762,0
1594889096.390,-34.180,115.723,4.883,-30.762,0
1594889096.394,-34.180,195.801,95.215,-30.762,0
1594889096.398,-30.273,260.254,89.355,-31.250,0
1594889096.402,-43.945,-306.641,-184.082,-33.691,0
1594889096.406,-56.641,-599.121,-284.180,-36.133,0
1594889096.409,-47.363,52.246,42.969,-42.480,0
1594889096.413,-36.621,334.961,138.672,-50.781,0
1594889096.417,-34.180,294.434,121.582,-56.152,0
1594889096.421,-37.109,-453.613,-228.027,-57.617,0
1594889096.425,-37.598,-753.418,-355.469,-53.711,0
1594889096.420,-36.621,-10.742,41.504,-42.969,0
1594889096.424,-43.945,172.363,82.031,-36.133,0
1594889096.428,-49.316,-101.074,-82.031,-36.621,0
1594889096.432,-50.293,-229.492,-122.070,-30.762,0
1594889096.436,-43.457,47.363,56.152,-32.715,0
1594889096.440,-39.062,-195.801,-104.004,-34.668,0
1594889096.444,-47.363,-303.223,-195.312,-35.645,0
1594889096.447,-46.875,-136.719,-111.816,-35.645,0
1594889096.451,-38.086,-798.828,-418.457,-27.832,0
1594889096.455,-33.203,-720.215,-266.602,-33.203,0
1594889096.459,-33.691,42.480,86.914,-34.668,0
1594889096.463,-35.156,238.770,88.867,-37.598,0
1594889096.477,-27.344,-83.008,-72.754,-40.039,0
1594889096.481,-18.555,-164.551,-96.191,-33.203,0
1594889096.485,-13.672,288.086,105.469,-32.715,0
1594889096.489,-14.160,247.070,69.824,-27.344,0
1594889096.493,-20.020,211.426,80.566,-20.020,0
1594889096.497,-25.879,-341.309,-187.500,-20.508,0
1594889096.501,-28.809,-540.039,-202.637,-25.391,0
1594889096.504,-33.203,123.535,91.797,-26.855,0
1594889096.508,-35.156,159.180,31.250,-26.367,0
1594889096.512,-32.715,95.703,50.781,-31.250,0
1594889096.516,-48.828,-92.285,-58.594,-34.180,0
1594889096.520,-66.406,-79.102,-50.781,-34.668,0
1594889096.513,-62.988,155.273,70.801,-34.668,0
1594889096.517,-62.988,192.871,83.008,-35.645,0
1594889096.521,-58.105,195.312,69.824,-34.180,0
1594889096.525,-50.293,-299.805,-195.801,-37.109,0
1594889096.529,-50.781,-294.922,-142.090,-41.992,0
1594889096.533,-43.457,-29.785,26.367,-42.480,0
1594889096.537,-26.367,140.137,112.305,-43.457,0
1594889096.540,-20.508,269.531,111.816,-40.039,0
1594889096.544,-24.902,-671.387,-418.945,-34.180,0
1594889096.548,-28.320,-947.754,-449.707,-40.527,0
1594889096.552,-25.879,-100.586,39.551,-54.199,0
1594889096.556,-18.555,428.223,190.430,-59.082,0
1594889096.569,-28.320,62.500,-34.668,-56.641,0
1594889096.573,-43.457,-234.375,-164.551,-50.781,0
1594889096.577,-45.898,184.570,83.008,-43.945,0
1594889096.581,-41.504,269.043,95.703,-38.086,0
1594889096.585,-44.434,105.957,19.043,-32.227,0
1594889096.589,-49.805,-524.902,-323.730,-29.297,0
1594889096.593,-43.457,-832.031,-421.387,-32.227,0
1594889096.596,-41.504,-181.152,-23.926,-33.203,0
1594889096.600,-44.434,301.758,130.859,-35.645,0
1594889096.604,-38.574,244.141,24.414,-35.645,0
1594889096.608,-34.180,-501.953,-288.574,-29.297,0
1594889096.612,-31.738,-495.605,-160.156,-27.832,0
1594889096.607,-25.879,216.797,124.023,-34.180,0
1594889096.611,-29.297,299.805,68.848,-38.086,0
1594889096.615,-29.297,71.777,-19.531,-40.039,0
1594889096.619,-26.367,-322.266,-171.875,-42.480,0
1594889096.623,-26.855,-58.594,9.277,-47.852,0
1594889096.627,-36.621,-6.836,4.883,-46.387,0
1594889096.631,-43.457,-237.305,-176.758,-44.434,0
1594889096.634,-32.227,-96.680,-48.828,-45.898,0
1594889096.638,-27.344,-705.078,-308.105,-48.340,0
1594889096.642,-34.180,-817.383,-352.539,-52.246,0
1594889096.646,-31.738,-64.941,5.371,-51.758,0
1594889096.650,-21.484,291.504,135.254,-49.316,0
1594889096.663,-21.484,127.441,16.113,-47.852,0
1594889096.667,-25.879,-243.164,-115.723,-49.316,0
1594889096.671,-22.461,25.391,53.711,-45.410,0
1594889096.675,-15.137,191.895,81.055,-35.645,0
1594889096.679,-19.043,250.488,124.512,-36.621,0
1594889096.683,-23.438,-250.977,-127.441,-30.273,0
1594889096.687,-30.273,-491.699,-240.234,-21.973,0
1594889096.690,-34.668,96.191,74.219,-22.949,0
1594889096.694,-28.809,235.840,125.000,-18.555,0
1594889096.698,-26.367,280.273,80.078,-19.531,0
1594889096.702,-25.879,-219.727,-88.379,-17.578,0
1594889096.706,-36.133,-452.637,-152.832,-15.137,0
1594889096.702,-40.527,-111.816,-46.875,-13.672,0
1594889096.706,-32.227,53.223,57.617,-6.836,0
1594889096.710,-32.227,69.824,-25.879,-12.695,0
1594889096.714,-37.598,-445.312,-259.277,-22.949,0
1594889096.718,-33.691,-254.883,-62.012,-31.250,0
1594889096.722,-23.438,73.242,121.094,-41.504,0
1594889096.726,-27.344,-198.242,-44.922,-43.457,0
1594889096.729,-36.621,-331.055,-195.312,-44.922,0
1594889096.733,-32.715,-803.223,-434.082,-35.645,0
1594889096.737,-26.855,-673.828,-251.953,-30.273,0
1594889096.741,-29.297,196.289,146.973,-44.434,0
1594889096.745,-31.738,380.371,112.793,-45.410,0
1594889096.757,-29.297,-192.871,-212.891,-34.668,0
1594889096.761,-20.996,-267.578,-171.387,-28.320,0
1594889096.765,-14.160,254.883,125.977,-31.738,0
1594889096.769,-31.250,32.715,-30.273,-35.645,0
1594889096.773,-53.223,35.156,17.578,-45.898,0
1594889096.777,-49.316,-382.324,-212.402,-38.086,0
1594889096.781,-44.434,-841.797,-328.125,-26.855,0
1594889096.784,-49.805,-230.957,10.254,-37.109,0
1594889096.788,-56.641,151.855,70.312,-40.527,0
1594889096.792,-49.805,132.812,62.012,-35.645,0
1594889096.796,-41.504,-51.270,-13.184,-33.691,0
1594889096.800,-42.969,0.977,-8.789,-38.574,0
1594889096.794,-40.039,104.980,36.621,-39.551,0
1594889096.798,-35.156,134.766,78.125,-31.250,0
1594889096.802,-34.668,166.504,84.961,-30.273,0
1594889096.806,-38.086,65.430,57.129,-34.668,0
1594889096.810,-41.016,-28.320,0.000,-37.598,0
1594889096.814,-37.109,-295.410,-187.500,-38.574,0
1594889096.818,-25.879,-393.066,-251.953,-38.574,0
1594889096.821,-18.066,-194.824,-77.637,-36.621,0
1594889096.825,-20.996,-614.258,-264.648,-35.156,2
1594889096.829,-31.250,-962.891,-444.336,-38.086,0
1594889096.833,-32.227,-203.613,-21.973,-43.945,0
1594889096.837,-36.133,469.238,221.191,-40.039,0
1594889096.851,-41.992,283.691,47.363,-36.621,0
1594889096.855,-32.715,-90.820,-121.582,-45.410,0
1594889096.859,-28.809,41.992,-3.418,-45.898,0
1594889096.863,-34.668,138.184,70.801,-41.992,0
1594889096.867,-27.832,365.234,189.941,-41.992,0
1594889096.871,-26.367,-54.199,-62.500,-36.621,0
1594889096.875,-39.062,-266.602,-125.488,-32.715,0
1594889096.878,-40.039,383.301,200.684,-25.879,0
1594889096.882,-34.668,329.590,105.957,-22.461,0
1594889096.886,-44.922,89.355,24.902,-31.250,0
1594889096.890,-50.781,-467.285,-243.164,-27.832,0
1594889096.894,-48.340,-434.570,-204.590,-25.879,0
1594889096.888,-50.781,324.707,151.367,-36.621,0
1594889096.892,-51.758,370.605,137.695,-44.434,0
1594889096.896,-48.340,128.418,11.719,-40.527,0
1594889096.900,-46.387,-108.398,-42.480,-33.203,0
1594889096.904,-41.016,199.707,135.254,-34.180,0
1594889096.908,-45.410,105.469,48.340,-35.645,0
1594889096.912,-47.852,-186.035,-128.906,-35.156,0
1594889096.915,-39.551,25.391,-4.395,-41.504,0
1594889096.919,-27.344,-597.168,-270.020,-39.551,0
1594889096.923,-17.578,-609.863,-229.980,-34.180,0
1594889096.927,-25.879,163.086,96.191,-41.504,0
1594889096.931,-30.762,-111.816,-140.625,-38.574,0
1594889096.944,-28.809,-416.016,-228.027,-32.715,0
1594889096.948,-31.738,-423.828,-134.277,-35.156,0
1594889096.952,-39.551,98.145,105.469,-42.969,0
1594889096.956,-34.668,199.219,62.012,-37.598,0
1594889096.960,-27.344,208.984,83.496,-33.691,0
1594889096.964,-21.973,-224.121,-142.578,-37.598,0
1594889096.968,-33.203,-621.094,-320.801,-34.180,0
1594889096.971,-52.246,-146.973,-113.281,-38.574,0
1594889096.975,-45.898,-60.059,-56.641,-39.551,0
1594889096.979,-37.598,119.629,97.656,-40.527,0
1594889096.983,-43.457,-125.000,-74.219,-41.504,0
1594889096.987,-42.480,-291.992,-201.172,-38.086,0
1594889096.982,-35.156,91.309,36.621,-40.527,0
1594889096.986,-33.203,212.891,144.531,-38.086,0
1594889096.990,-40.527,-45.410,-28.320,-41.504,0
1594889096.994,-44.922,-399.414,-175.293,-49.316,0
1594889096.998,-37.109,-187.012,-42.969,-41.992,0
1594889097.002,-31.738,-176.270,-99.609,-32.715,0
1594889097.006,-34.180,-118.164,-16.113,-39.551,0
1594889097.009,-29.297,149.902,84.961,-41.504,0
1594889097.013,-31.250,-670.898,-349.609,-33.203,0
1594889097.017,-29.297,-706.055,-214.355,-28.320,0
1594889097.021,-18.555,328.613,222.656,-32.227,0
1594889097.025,-19.531,444.824,150.879,-35.156,0
1594889097.038,-34.180,2.441,-68.359,-31.738,0
1594889097.042,-49.316,-124.023,-105.469,-28.809,0
1594889097.046,-43.945,187.500,115.234,-33.203,0
1594889097.050,-38.574,237.305,103.516,-29.785,0
1594889097.054,-42.480,20.020,-47.852,-28.320,0
1594889097.058,-27.832,-521.973,-302.734,-25.391,0
1594889097.062,-13.672,-633.789,-290.527,-19.531,0
1594889097.065,-16.602,-99.609,2.930,-30.273,0
1594889097.069,-21.484,137.207,51.758,-41.504,0
1594889097.073,-25.391,192.383,83.496,-49.805,0
1594889097.077,-22.949,-380.859,-137.695,-51.758,0
1594889097.081,-16.602,-318.359,-95.703,-46.875,0
1594889097.076,-20.996,508.789,208.008,-42.969,0
1594889097.080,-28.809,297.852,68.359,-41.016,0
1594889097.084,-37.109,118.652,36.133,-42.969,0
1594889097.088,-41.504,3.906,-14.648,-38.574,0
1594889097.092,-39.062,4.883,31.738,-31.250,0
1594889097.096,-41.504,-225.586,-143.066,-24.414,0
1594889097.100,-49.316,-284.668,-188.965,-28.320,0
1594889097.103,-46.387,-26.367,52.246,-32.227,0
1594889097.107,-43.457,-637.207,-308.105,-29.297,0
1594889097.111,-50.293,-979.492,-463.867,-32.227,0
1594889097.115,-47.363,-174.316,5.859,-33.691,0
1594889097.119,-37.109,458.496,215.332,-32.715,0
1594889097.132,-44.434,134.277,10.742,-37.109,0
1594889097.136,-44.922,-60.547,-71.289,-45.410,0
1594889097.140,-37.109,241.211,81.543,-51.270,0
1594889097.144,-24.902,227.051,97.656,-53.223,0
1594889097.148,-16.113,196.777,81.543,-53.223,0
1594889097.152,-17.578,-487.793,-291.016,-39.551,0
1594889097.156,-36.133,-745.117,-365.234,-39.551,0
1594889097.159,-50.781,-17.578,9.277,-44.922,0
1594889097.163,-42.480,345.703,146.973,-39.551,0
1594889097.167,-46.387,364.746,125.977,-48.828,0
1594889097.171,-47.363,-283.691,-129.395,-47.363,0
1594889097.175,-39.551,-523.438,-165.039,-38.086,0
1594889097.171,-42.480,20.508,57.129,-41.016,0
1594889097.175,-40.039,117.676,44.922,-41.992,0
1594889097.179,-42.969,-98.633,-93.750,-41.504,0
1594889097.183,-44.434,-610.352,-247.559,-41.992,0
1594889097.187,-43.457,-316.895,-0.488,-36.133,0
1594889097.191,-47.852,-69.336,37.109,-35.156,0
1594889097.195,-44.434,-129.883,-5.371,-38.574,0
1594889097.198,-41.016,77.637,42.480,-36.133,0
1594889097.202,-39.551,-709.961,-322.266,-37.109,0
1594889097.206,-38.574,-573.730,-153.320,-42.969,0
1594889097.210,-38.086,404.297,176.270,-41.992,0
1594889097.214,-36.133,415.039,103.027,-37.109,0
1594889097.227,-37.109,122.070,-16.113,-39.062,0
1594889097.231,-39.062,-125.000,-78.613,-41.016,0
1594889097.235,-39.551,75.195,103.027,-39.062,0
1594889097.239,-40.527,133.301,20.508,-38.086,0
1594889097.243,-34.668,175.293,41.992,-40.039,0
1594889097.247,-19.531,-189.453,-114.746,-41.016,0
1594889097.251,-16.602,-793.945,-341.797,-40.039,0
1594889097.254,-17.578,-188.477,20.508,-37.109,0
1594889097.258,-9.766,228.516,79.590,-42.480,0
1594889097.262,-17.090,72.266,22.461,-39.062,0
1594889097.266,-32.715,-24.414,20.508,-32.715,0
1594889097.270,-39.062,2.930,12.695,-37.109,0
1594889097.263,-39.551,99.121,54.199,-32.227,0
1594889097.267,-39.551,303.711,131.836,-29.785,0
1594889097.271,-29.785,323.242,87.402,-26.367,0
1594889097.275,-24.902,-13.184,-81.543,-20.996,0
1594889097.279,-30.273,-196.777,-195.801,-32.715,0
1594889097.283,-30.273,-358.398,-249.512,-39.551,0
1594889097.287,-31.250,-312.012,-154.297,-42.480,0
1594889097.290,-35.156,-14.160,15.625,-44.434,0
1594889097.294,-32.715,-625.000,-389.648,-37.109,0
1594889097.298,-30.762,-925.293,-449.219,-37.109,0
1594889097.302,-22.949,-150.391,64.453,-38.574,0
1594889097.306,-16.113,218.262,138.184,-35.156,0
1594889097.319,-21.484,67.871,-11.719,-36.133,0
1594889097.323,-25.879,-143.555,-180.176,-34.668,0
1594889097.327,-22.949,44.922,-1.953,-37.109,0
1594889097.331,-18.066,280.762,139.160,-45.898,0
1594889097.335,-17.578,435.547,155.762,-45.898,0
1594889097.339,-15.625,-323.730,-236.328,-36.133,0
1594889097.343,-25.391,-716.797,-303.711,-38.086,0
1594889097.346,-35.645,-109.375,83.984,-39.551,0
1594889097.350,-34.668,130.859,81.055,-31.250,0
1594889097.354,-38.086,195.801,83.008,-32.715,0
1594889097.358,-32.227,-431.641,-187.012,-25.879,0
1594889097.362,-21.973,-511.230,-165.039,-21.973,0
1594889097.357,-31.250,235.352,145.508,-37.109,0
1594889097.361,-36.621,279.785,74.707,-41.504,0
1594889097.365,-39.551,-24.414,-22.949,-41.992,0
1594889097.369,-37.109,-76.660,36.621,-41.016,0
1594889097.373,-26.855,41.504,58.594,-38.086,0
1594889097.377,-32.715,-210.938,-162.598,-35.156,0
1594889097.381,-47.363,-214.355,-169.434,-37.109,0
1594889097.384,-48.828,-15.137,-6.348,-39.062,0
1594889097.388,-42.480,-670.410,-305.664,-30.273,0
1594889097.392,-40.527,-770.996,-388.672,-25.879,0
1594889097.396,-44.434,-203.125,-143.555,-30.273,0
1594889097.400,-45.410,149.414,55.176,-34.668,0
1594889097.413,-40.039,65.918,6.836,-36.621,0
1594889097.417,-38.086,-454.102,-236.328,-36.133,0
1594889097.421,-39.062,-204.590,-50.781,-39.551,0
1594889097.425,-37.598,117.676,95.703,-42.969,0
1594889097.429,-26.855,271.484,136.230,-40.039,0
1594889097.433,-21.484,-373.535,-208.984,-35.156,0
1594889097.437,-29.297,-705.566,-301.758,-33.691,0
1594889097.440,-34.668,-43.457,93.750,-37.109,0
1594889097.444,-23.926,156.738,98.633,-36.133,0
1594889097.448,-15.137,227.539,68.359,-26.367,0
1594889097.452,-22.461,-59.082,-55.664,-26.367,0
1594889097.456,-25.391,23.926,41.504,-30.762,0
1594889097.470,-24.414,161.133,64.941,-31.738,0
1594889097.474,-25.391,-77.148,-40.039,-33.203,0
1594889097.478,-25.391,21.484,-29.297,-33.691,0
1594889097.482,-25.879,-324.707,-203.125,-33.691,0
1594889097.486,-24.902,-237.305,-21.973,-38.086,0
1594889097.490,-24.414,-122.559,17.578,-44.434,0
1594889097.494,-31.738,-132.324,20.508,-48.828,0
1594889097.497,-38.574,-32.227,-20.996,-48.340,0
1594889097.501,-36.133,-696.289,-337.402,-43.945,0
1594889097.505,-31.738,-368.652,-60.059,-46.387,0
1594889097.509,-30.762,194.824,108.398,-52.246,0
1594889097.513,-30.762,110.840,41.992,-46.875,0
1594889097.507,-28.809,-163.574,-135.742,-47.852,0
1594889097.511,-22.949,-567.871,-294.922,-55.664,0
1594889097.515,-19.043,41.016,73.242,-51.270,0
1594889097.519,-28.809,144.531,43.945,-42.480,0
1594889097.523,-36.133,-139.648,-119.141,-40.039,0
1594889097.527,-29.785,-503.906,-296.387,-34.180,0
1594889097.531,-22.461,-420.410,-141.113,-26.855,0
1594889097.534,-19.531,166.016,104.980,-35.156,0
1594889097.538,-20.508,25.391,-17.090,-37.598,0
1594889097.542,-28.320,251.953,127.930,-34.668,0
1594889097.546,-34.180,-182.617,-133.301,-33.691,0
1594889097.550,-36.621,-638.672,-257.812,-29.785,0
1594889097.544,-43.457,27.344,58.594,-38.086,0
1594889097.548,-45.898,218.750,78.613,-40.527,0
1594889097.552,-37.598,168.945,104.492,-37.109,0
1594889097.556,-27.344,41.504,53.223,-40.039,0
1594889097.560,-26.855,113.770,57.129,-45.898,0
1594889097.564,-34.180,-147.461,-104.980,-51.758,0
1594889097.568,-36.133,-411.621,-231.934,-54.688,0
1594889097.571,-26.855,-252.441,-144.531,-54.688,0
1594889097.575,-26.855,-680.176,-280.762,-56.641,0
1594889097.579,-40.039,-486.328,-173.340,-57.129,0
1594889097.583,-37.109,25.879,41.016,-58.594,0
1594889097.587,-25.391,249.023,131.836,-57.129,0
1594889097.601,-27.344,196.289,24.902,-55.176,0
1594889097.605,-32.227,-816.406,-442.383,-47.363,0
1594889097.609,-30.273,-669.434,-249.023,-41.504,0
1594889097.613,-24.414,-10.254,87.891,-51.270,0
1594889097.617,-28.320,82.031,76.172,-53.711,0
1594889097.621,-29.785,-336.914,-219.727,-45.410,0
1594889097.625,-28.320,-538.574,-263.184,-46.875,0
1594889097.628,-21.484,114.258,118.164,-47.363,0
1594889097.632,-11.230,255.859,89.355,-36.133,0
1594889097.636,-14.160,53.711,-98.633,-32.227,0
1594889097.640,-19.531,-633.301,-399.902,-26.367,0
1594889097.644,-20.996,-543.945,-200.195,-26.855,0
1594889097.638,-21.973,276.367,151.367,-38.574,0
1594889097.642,-34.668,296.875,86.914,-42.969,0
1594889097.646,-49.316,127.930,20.020,-38.574,0
1594889097.650,-47.363,14.648,30.273,-33.203,0
1594889097.654,-37.109,34.668,61.035,-32.715,0
1594889097.658,-46.875,-187.500,-90.332,-39.062,0
1594889097.662,-57.617,-312.988,-218.262,-35.645,0
1594889097.665,-49.805,15.137,-43.457,-28.809,0
1594889097.669,-37.109,-559.570,-218.262,-27.344,0
1594889097.673,-38.574,-639.648,-184.082,-30.762,0
1594889097.677,-41.992,169.922,118.652,-36.621,0
1594889097.681,-34.668,120.605,21.973,-34.180,0
1594889097.695,-36.133,-183.594,-52.734,-31.250,2
1594889097.699,-42.969,-250.488,-89.355,-33.203,0
1594889097.703,-47.363,84.961,62.500,-37.598,0
1594889097.707,-50.293,145.996,65.430,-34.668,0
1594889097.711,-49.316,224.609,97.168,-39.062,0
1594889097.715,-51.270,-116.211,-83.496,-47.363,0
1594889097.719,-53.711,-273.438,-146.973,-45.898,0
1594889097.722,-47.363,148.438,78.125,-39.062,0
1594889097.726,-40.527,290.039,92.773,-35.156,0
1594889097.730,-35.645,327.148,143.066,-41.504,0
1594889097.734,-35.645,-245.605,-58.594,-35.645,0
1594889097.738,-27.832,-413.574,-145.996,-27.344,0
1594889097.732,-18.555,109.375,63.477,-26.367,0
1594889097.736,-13.184,314.941,146.484,-28.809,0
1594889097.740,-7.324,201.172,66.406,-25.391,0
1594889097.744,-24.414,-243.164,-153.320,-21.484,0
1594889097.748,-39.551,-130.859,-51.270,-34.668,0
1594889097.752,-34.180,-40.039,24.414,-41.016,0
1594889097.756,-30.762,-65.918,55.176,-38.086,0
1594889097.759,-36.133,-84.961,-9.277,-40.527,0
1594889097.763,-49.805,-814.941,-473.633,-33.691,0
1594889097.767,-49.316,-775.391,-344.727,-21.484,0
1594889097.771,-51.270,72.754,100.586,-25.391,0
1594889097.775,-61.523,310.059,144.043,-31.250,0
1594889097.788,-62.988,-25.391,-88.379,-26.855,0
1594889097.792,-54.199,-177.734,-156.250,-26.367,0
1594889097.796,-47.363,226.562,125.977,-33.691,0
1594889097.800,-45.898,276.855,90.332,-27.832,0
1594889097.804,-45.898,49.805,-22.949,-30.273,0
1594889097.808,-40.039,-553.711,-296.875,-40.527,0
1594889097.812,-31.250,-746.582,-345.703,-37.598,0
1594889097.815,-29.297,-250.977,-53.711,-44.434,0
1594889097.819,-24.902,61.035,30.273,-45.410,0
1594889097.823,-22.461,274.902,98.145,-38.574,0
1594889097.827,-31.250,-303.711,-154.297,-31.738,0
1594889097.831,-41.504,-677.246,-282.715,-33.203,0
1594889097.826,-37.598,-77.637,29.785,-44.434,0
1594889097.830,-37.109,-31.738,-63.965,-41.992,0
1594889097.834,-45.410,32.715,-68.359,-40.039,0
1594889097.838,-39.551,112.793,111.328,-39.551,0
1594889097.842,-35.645,165.527,88.867,-36.133,0
1594889097.846,-37.598,-262.207,-229.980,-36.621,0
1594889097.850,-36.621,-384.277,-205.078,-38.086,0
1594889097.853,-39.062,89.844,113.770,-36.133,0
1594889097.857,-49.805,-513.184,-200.195,-35.156,0
1594889097.861,-67.383,-880.371,-434.570,-35.156,0
1594889097.865,-66.406,-224.609,-75.684,-28.320,0
1594889097.869,-48.828,311.035,172.852,-35.156,0
1594889097.882,-40.527,172.852,-10.254,-41.504,0
1594889097.886,-38.574,-347.656,-244.141,-35.645,0
1594889097.890,-31.738,-33.203,7.324,-33.203,0
1594889097.894,-19.043,135.742,82.031,-31.738,0
1594889097.898,-9.277,90.820,53.711,-34.180,0
1594889097.902,-3.418,-450.684,-255.371,-29.297,0
1594889097.906,-15.625,-684.082,-320.312,-29.785,0
1594889097.909,-27.832,28.320,58.594,-31.738,0
1594889097.913,-17.090,284.668,132.324,-25.879,0
1594889097.917,-16.602,285.645,79.102,-30.273,0
1594889097.921,-30.762,-136.230,-151.855,-36.133,0
1594889097.925,-29.785,-392.090,-252.441,-29.297,0
1594889097.921,-21.484,-125.000,-55.664,-32.227,0
1594889097.925,-22.461,190.918,149.414,-39.062,0
1594889097.929,-26.855,96.680,15.625,-36.133,0
1594889097.933,-28.320,-397.949,-199.707,-36.133,0
1594889097.937,-28.809,-275.879,-56.641,-36.621,0
1594889097.941,-27.832,-185.547,-135.742,-38.574,0
1594889097.945,-34.180,-270.020,-225.098,-39.062,0
1594889097.948,-41.016,-40.527,-147.461,-46.387,0
1594889097.952,-37.109,-698.242,-415.039,-37.109,0
1594889097.956,-31.738,-629.883,-224.609,-28.809,0
1594889097.960,-35.156,231.934,121.094,-43.457,0
1594889097.964,-39.062,353.516,110.840,-45.898,0
1594889097.976,-39.551,173.340,28.809,-41.016,0
1594889097.980,-42.480,-100.586,-46.875,-40.039,0
1594889097.984,-50.293,-83.496,12.207,-42.969,0
1594889097.988,-53.711,-224.121,-195.801,-41.992,0
1594889097.992,-47.852,-20.020,-69.824,-38.574,0
1594889097.996,-37.109,-317.383,-159.180,-35.645,0
1594889098.000,-33.203,-878.418,-408.691,-33.691,0
1594889098.003,-35.156,-309.082,-38.574,-38.574,0
1594889098.007,-31.738,299.316,125.488,-44.434,0
1594889098.011,-27.344,372.070,102.051,-47.852,0
1594889098.015,-24.902,169.434,103.516,-41.992,0
1594889098.019,-31.738,66.406,67.383,-45.898,0
1594889098.013,-38.574,74.707,30.273,-52.246,0
1594889098.017,-35.156,312.988,126.953,-48.828,0
1594889098.021,-33.691,427.246,91.797,-43.457,0
1594889098.025,-36.133,6.348,-97.168,-39.062,0
1594889098.029,-45.898,-184.570,-175.781,-46.387,0
1594889098.033,-50.781,-263.672,-199.707,-43.945,0
1594889098.037,-41.504,-207.520,-35.156,-38.574,0
1594889098.040,-35.645,-103.516,35.645,-38.574,0
1594889098.044,-40.039,-663.574,-422.363,-40.039,0
1594889098.048,-43.945,-965.332,-496.094,-43.457,0
1594889098.052,-41.504,-187.500,52.246,-43.945,0
1594889098.056,-44.922,438.965,190.918,-39.551,0
1594889098.069,-52.246,162.598,-25.879,-36.621,0
1594889098.073,-53.223,-215.820,-212.891,-31.250,0
1594889098.077,-45.410,109.375,42.480,-30.273,0
1594889098.081,-41.016,333.984,168.457,-36.133,0
1594889098.085,-37.109,295.410,91.309,-33.203,0
1594889098.089,-30.273,-396.973,-276.855,-30.273,0
1594889098.093,-26.367,-556.641,-253.418,-30.762,0
1594889098.096,-21.484,101.074,152.344,-30.762,0
1594889098.100,-20.508,-53.223,4.883,-37.598,0
1594889098.104,-24.414,24.414,-10.254,-42.480,0
1594889098.108,-20.996,-441.895,-221.191,-37.109,0
1594889098.112,-18.555,-592.773,-193.848,-35.156,0
1594889098.107,-20.020,29.297,106.445,-42.480,0
1594889098.111,-26.367,95.215,64.453,-44.434,0
1594889098.115,-27.344,-72.754,-41.016,-39.551,0
1594889098.119,-16.113,-121.094,-11.719,-40.039,0
1594889098.123,-17.578,199.707,121.094,-41.016,0
1594889098.127,-34.180,-52.246,-50.781,-41.992,0
1594889098.131,-45.410,-219.727,-149.414,-40.527,0
1594889098.134,-45.898,147.461,36.621,-42.480,0
1594889098.138,-40.527,-527.832,-229.492,-43.945,0
1594889098.142,-40.527,-687.012,-237.305,-42.480,0
1594889098.146,-38.086,-22.949,20.508,-45.898,0
1594889098.150,-41.016,0.488,-23.438,-48.828,0
1594889098.163,-31.250,72.754,11.230,-41.504,0
1594889098.167,-22.949,-129.883,-104.980,-40.527,0
1594889098.171,-33.203,46.387,2.930,-48.828,0
1594889098.175,-36.621,86.914,38.574,-42.969,0
1594889098.179,-32.227,348.145,212.891,-34.180,0
1594889098.183,-34.668,-127.441,-92.773,-32.227,0
1594889098.187,-40.039,-596.680,-258.301,-31.250,0
1594889098.190,-41.992,107.910,88.379,-29.785,0
1594889098.194,-50.293,362.793,113.281,-31.250,0
1594889098.198,-44.434,432.617,145.508,-32.715,0
1594889098.202,-36.133,-121.582,-118.652,-33.203,0
1594889098.206,-33.691,-249.512,-127.441,-35.645,0
1594889098.221,-30.762,137.695,43.457,-36.621,0
1594889098.225,-27.832,-22.949,34.668,-38.086,0
1594889098.229,-30.273,-294.434,-139.648,-33.203,0
1594889098.233,-36.621,-650.391,-314.453,-30.273,0
1594889098.237,-26.367,-326.660,-55.664,-36.133,0
1594889098.241,-5.371,-114.746,-6.348,-32.715,0
1594889098.245,-0.977,-266.113,-130.371,-31.250,0
1594889098.248,-5.859,-180.176,-192.871,-35.645,0
1594889098.252,-8.301,-835.938,-481.934,-29.785,0
1594889098.256,-11.230,-602.051,-182.129,-36.133,0
1594889098.260,-17.090,277.832,167.969,-43.457,0
1594889098.264,-24.902,191.895,33.691,-35.156,0
1594889098.257,-25.879,-33.203,-32.715,-32.227,0
1594889098.261,-28.320,-71.777,-13.184,-30.762,0
1594889098.265,-33.691,340.332,172.363,-30.273,0
1594889098.269,-36.133,377.441,134.766,-31.250,0
1594889098.273,-36.621,-47.363,-88.867,-37.109,0
1594889098.277,-37.109,-623.047,-363.281,-42.969,0
1594889098.281,-33.203,-479.492,-201.660,-47.363,0
1594889098.284,-35.156,80.078,77.148,-46.875,0
1594889098.288,-41.504,4.883,-2.930,-44.434,0
1594889098.292,-39.551,127.930,75.684,-47.363,0
1594889098.296,-40.039,-223.145,-88.379,-44.434,0
1594889098.300,-42.480,-772.461,-339.844,-38.086,0
1594889098.294,-38.086,-135.254,-51.270,-41.504,0
1594889098.298,-36.133,166.016,99.121,-47.852,0
1594889098.302,-38.086,144.531,91.797,-46.387,0
1594889098.306,-39.062,206.055,101.562,-42.480,0
1594889098.310,-46.875,31.250,18.555,-45.898,0
1594889098.314,-47.852,-326.660,-191.406,-45.410,0
1594889098.318,-51.270,-264.648,-59.570,-47.363,0
1594889098.321,-49.316,83.984,123.047,-51.270,0
1594889098.325,-42.480,-567.383,-324.707,-46.875,0
1594889098.329,-51.270,-985.352,-450.684,-42.969,0
1594889098.333,-51.270,-224.609,4.883,-40.039,0
1594889098.337,-43.945,244.629,130.371,-33.691,0
1594889098.351,-45.410,65.430,28.809,-35.156,0
1594889098.355,-46.875,-138.672,-91.797,-37.109,0
1594889098.359,-43.457,65.918,15.137,-27.832,0
1594889098.363,-40.527,394.043,165.527,-19.531,0
1594889098.367,-38.086,415.527,121.094,-22.461,0
1594889098.371,-36.133,-311.035,-277.832,-31.250,0
1594889098.375,-32.227,-496.094,-262.695,-30.762,0
1594889098.378,-30.273,186.523,116.699,-29.297,0
1594889098.382,-37.598,252.930,74.707,-37.598,0
1594889098.386,-40.527,123.535,27.344,-34.668,0
1594889098.390,-36.133,-539.062,-303.711,-27.832,0
1594889098.394,-34.668,-655.762,-250.977,-34.668,0
1594889098.390,-35.156,166.992,151.367,-43.945,0
1594889098.394,-40.527,220.703,72.754,-45.898,0
1594889098.398,-38.086,-10.254,-22.461,-38.086,1
1594889098.402,-34.180,-197.754,-138.672,-25.391,0
1594889098.406,-40.527,-2.441,-8.301,-31.738,0
1594889098.410,-46.387,-185.059,-96.680,-33.203,0
1594889098.414,-47.852,-382.324,-277.832,-28.320,0
1594889098.417,-46.387,35.645,5.859,-39.551,0
1594889098.421,-42.480,-543.457,-198.730,-31.250,0
1594889098.425,-36.133,-684.082,-234.375,-22.949,0
1594889098.429,-29.785,135.742,99.609,-38.086,0
1594889098.433,-30.762,270.508,87.402,-39.062,0
1594889098.446,-29.785,84.961,29.785,-38.086,0
1594889098.450,-19.531,-163.086,-106.934,-41.992,0
1594889098.454,-19.043,73.730,2.930,-34.668,0
1594889098.458,-22.949,102.539,29.297,-41.504,0
1594889098.462,-10.742,238.770,109.375,-55.664,0
1594889098.466,-6.348,-63.477,-55.176,-53.711,0
1594889098.470,-8.301,-642.578,-326.660,-49.805,0
1594889098.473,-1.953,-209.961,-67.383,-41.504,0
1594889098.477,-10.254,281.738,152.344,-39.551,0
1594889098.481,-17.578,437.012,193.359,-43.457,0
1594889098.485,-21.973,104.492,27.344,-35.156,0
1594889098.489,-31.250,-12.695,-47.852,-27.832,0
1594889098.482,-35.156,159.180,44.922,-38.574,0
1594889098.486,-30.762,257.812,118.164,-40.527,0
1594889098.490,-29.297,178.711,29.785,-33.691,0
1594889098.494,-31.738,-271.484,-218.750,-35.156,0
1594889098.498,-31.738,-401.367,-268.066,-35.156,0
1594889098.502,-20.996,-395.996,-234.863,-38.086,0
1594889098.506,-17.090,-204.102,-36.621,-40.039,0
1594889098.509,-31.250,94.727,73.242,-32.227,0
1594889098.513,-34.180,-644.531,-337.402,-23.926,0
1594889098.517,-34.668,-952.637,-363.281,-27.344,0
1594889098.521,-35.645,-140.625,48.828,-36.133,0
1594889098.525,-28.809,208.496,110.352,-35.156,0
1594889098.538,-26.367,-127.930,-168.945,-26.855,0
1594889098.542,-28.320,-244.629,-205.566,-31.250,0
1594889098.546,-26.855,86.426,62.012,-34.180,0
1594889098.550,-22.949,84.961,37.598,-31.738,0
1594889098.554,-24.902,55.176,31.250,-33.691,0
1594889098.558,-22.949,-427.246,-231.445,-28.809,0
1594889098.562,-14.648,-750.000,-312.500,-27.832,0
1594889098.565,-16.113,-234.863,-19.531,-35.645,0
1594889098.569,-37.598,15.137,-7.812,-45.898,0
1594889098.573,-38.086,195.801,68.359,-48.340,0
1594889098.577,-18.555,-293.945,-134.277,-44.922,0
1594889098.581,-23.438,-403.809,-155.762,-46.875,0
1594889098.576,-29.785,155.762,69.824,-49.316,0
1594889098.580,-30.273,46.387,-5.859,-51.270,0
1594889098.584,-33.203,50.781,32.715,-53.223,0
1594889098.588,-24.414,31.738,57.617,-47.852,0
1594889098.592,-16.113,99.121,80.566,-43.457,0
1594889098.596,-25.391,-195.801,-135.254,-49.805,0
1594889098.600,-29.785,-225.586,-90.820,-53.711,0
1594889098.603,-19.531,125.488,115.234,-49.316,0
1594889098.607,-22.461,-553.223,-284.668,-44.922,0
1594889098.611,-35.156,-909.668,-473.145,-38.574,0
1594889098.615,-40.039,-278.320,-132.812,-43.457,0
1594889098.619,-35.156,231.445,125.488,-43.945,0
1594889098.632,-29.785,84.473,5.371,-37.598,0
1594889098.636,-39.551,-434.570,-225.098,-38.086,0
1594889098.640,-43.945,-43.945,6.348,-32.227,0
1594889098.644,-34.668,320.801,136.719,-28.320,0
1594889098.648,-30.762,371.094,129.395,-37.109,0
1594889098.652,-24.902,-295.410,-229.492,-40.527,0
1594889098.656,-26.367,-759.766,-416.504,-37.598,0
1594889098.659,-32.227,16.602,48.340,-37.109,0
1594889098.663,-28.320,441.406,153.809,-34.180,0
1594889098.667,-33.691,380.859,62.988,-40.039,0
1594889098.671,-35.156,-186.035,-176.758,-35.645,0
1594889098.675,-29.297,-277.344,-128.418,-30.273,0
1594889098.671,-38.574,-11.719,78.125,-41.992,0
1594889098.675,-48.828,75.684,74.707,-44.434,0
1594889098.679,-52.246,79.102,-19.043,-43.945,0
1594889098.683,-53.223,-310.547,-181.152,-43.457,0
1594889098.687,-41.992,-125.977,10.254,-40.039,0
1594889098.691,-40.527,-53.223,20.996,-41.992,0
1594889098.695,-43.945,-188.477,-128.418,-40.527,0
1594889098.698,-40.527,30.273,-3.418,-37.598,0
1594889098.702,-36.133,-593.750,-269.531,-34.668,0
1594889098.706,-37.598,-719.238,-262.207,-36.133,0
1594889098.710,-43.945,246.582,178.711,-41.016,0
1594889098.714,-45.898,428.711,147.461,-43.457,0
1594889098.726,-41.992,97.168,-10.742,-45.410,0
1594889098.730,-36.133,46.875,-4.395,-45.410,0
1594889098.734,-30.273,154.785,53.711,-42.480,0
1594889098.738,-32.227,-99.121,-70.801,-43.945,0
1594889098.742,-27.832,127.930,61.523,-40.527,0
1594889098.746,-27.344,-145.996,-132.324,-36.133,0
1594889098.750,-29.297,-809.082,-406.250,-32.227,0
1594889098.753,-25.391,-375.000,-103.027,-26.855,0
1594889098.757,-32.715,58.105,49.805,-30.762,0
1594889098.761,-37.598,174.316,100.098,-25.391,0
1594889098.765,-35.645,93.750,48.340,-19.043,0
1594889098.769,-41.992,-10.254,8.301,-26.367,0
1594889098.763,-41.504,69.824,44.922,-27.832,0
1594889098.767,-36.621,97.168,54.199,-27.832,0
1594889098.771,-37.109,75.195,24.902,-29.297,0
1594889098.775,-42.969,-178.223,-169.922,-30.762,0
1594889098.779,-52.734,-291.016,-301.270,-34.180,0
1594889098.783,-39.551,-330.078,-250.977,-33.691,0
1594889098.787,-26.367,-296.387,-137.695,-36.133,0
1594889098.790,-28.809,-312.500,-180.176,-38.574,0
1594889098.794,-41.016,-777.344,-460.449,-32.715,0
1594889098.798,-41.016,-973.633,-435.547,-29.297,0
1594889098.802,-32.227,-175.293,76.172,-37.109,0
1594889098.806,-36.621,506.348,203.613,-45.410,0
1594889098.819,-41.016,168.945,-20.020,-49.316,0
1594889098.823,-33.691,-108.398,-59.082,-48.340,0
1594889098.827,-22.461,195.312,105.469,-41.016,0
1594889098.831,-18.066,259.277,81.543,-36.621,0
1594889098.835,-25.391,181.641,44.434,-40.527,0
1594889098.839,-31.250,-441.406,-315.918,-41.016,0
1594889098.843,-31.250,-702.637,-330.078,-32.227,0
1594889098.846,-29.785,165.527,163.574,-32.715,0
1594889098.850,-30.762,312.988,76.172,-32.227,0
1594889098.854,-29.297,-57.129,-146.973,-31.250,0
1594889098.858,-25.391,-564.453,-351.562,-26.855,0
1594889098.862,-25.391,-541.992,-197.754,-21.973,0
1594889098.857,-31.738,203.125,140.625,-22.949,0
1594889098.861,-43.457,305.176,74.707,-22.461,0
1594889098.865,-44.922,162.109,9.766,-20.020,0
1594889098.869,-35.645,37.598,36.621,-16.113,0
1594889098.873,-32.227,311.035,158.691,-22.949,0
1594889098.877,-32.715,145.996,49.805,-30.273,0
1594889098.881,-41.016,-193.848,-101.074,-29.297,0
1594889098.884,-41.016,201.660,92.773,-32.715,0
1594889098.888,-29.785,-439.941,-196.777,-29.297,0
1594889098.892,-25.879,-793.457,-346.680,-29.785,0
1594889098.896,-32.715,46.387,43.945,-46.387,0
1594889098.900,-33.203,192.383,52.734,-55.176,0
1594889098.913,-35.156,-151.367,-79.590,-50.781,0
1594889098.917,-37.109,-255.859,-70.312,-48.340,0
1594889098.921,-28.809,1.953,17.578,-46.875,0
1594889098.925,-30.762,40.039,7.324,-40.039,0
1594889098.929,-38.086,219.727,129.395,-31.250,0
1594889098.933,-39.062,-311.035,-206.055,-32.227,0
1594889098.937,-34.180,-661.133,-360.840,-31.250,0
1594889098.940,-24.902,41.992,76.172,-27.344,0
1594889098.944,-21.484,254.883,140.625,-29.297,0
1594889098.948,-22.461,289.062,110.840,-36.133,0
1594889098.952,-29.785,-88.867,-79.102,-37.109,0
1594889098.956,-51.270,-126.953,-29.785,-35.645,0
1594889098.951,-57.129,273.438,122.070,-37.598,0
1594889098.955,-47.363,299.805,138.672,-36.621,0
1594889098.959,-44.922,41.504,-2.930,-38.086,0
1594889098.963,-53.223,-531.250,-267.578,-42.480,0
1594889098.967,-51.758,-364.258,-41.016,-40.527,0
1594889098.971,-45.898,-189.453,-41.504,-39.062,0
1594889098.975,-47.363,-275.879,-177.734,-43.945,0
1594889098.978,-48.340,-34.668,-45.898,-51.270,0
1594889098.982,-43.457,-699.707,-337.891,-46.387,0
1594889098.986,-37.598,-665.039,-200.195,-43.945,0
1594889098.990,-34.180,269.531,164.062,-44.922,0
1594889098.994,-34.180,411.133,128.906,-40.527,0
1594889099.007,-33.203,128.418,31.738,-44.434,0
1594889099.011,-24.902,10.254,-1.953,-47.363,0
1594889099.015,-23.438,328.125,145.996,-49.316,0
1594889099.019,-34.180,262.207,79.590,-49.316,0
1594889099.023,-42.480,15.137,-74.219,-43.457,0
1594889099.027,-33.203,-524.902,-355.957,-38.086,0
1594889099.031,-22.461,-743.164,-373.535,-37.598,0
1594889099.034,-19.531,-203.613,-18.555,-33.691,0
1594889099.038,-23.926,-5.371,-10.254,-35.156,0
1594889099.042,-32.227,15.625,-118.164,-36.133,0
1594889099.046,-39.062,-471.680,-276.855,-27.344,0
1594889099.050,-42.969,-708.008,-239.746,-33.203,0
1594889099.044,-56.152,-41.992,74.707,-41.016,0
1594889099.048,-58.105,142.090,74.707,-41.504,0
1594889099.052,-49.316,91.797,49.805,-40.039,0
1594889099.056,-47.852,-155.273,-92.773,-33.691,0
1594889099.060,-47.852,-161.621,-159.668,-29.785,0
1594889099.064,-50.293,-425.293,-258.301,-30.762,0
1594889099.068,-45.898,-287.598,-69.336,-29.297,0
1594889099.071,-41.016,186.035,114.746,-29.297,0
1594889099.075,-42.969,-582.520,-359.375,-28.320,0
1594889099.079,-46.387,-927.734,-409.668,-25.879,0
1594889099.083,-45.410,-70.801,40.527,-33.691,0
1594889099.087,-39.062,508.301,233.398,-41.504,0
1594889099.101,-40.527,78.125,-76.660,-40.039,0
1594889099.105,-43.457,-454.590,-291.992,-32.227,0
1594889099.109,-46.387,107.910,91.309,-35.156,0
1594889099.113,-53.711,519.043,197.754,-37.109,0
1594889099.117,-58.105,523.438,186.523,-41.992,0
1594889099.121,-54.199,-200.684,-193.848,-42.969,0
1594889099.125,-47.852,-537.109,-299.316,-42.969,0
1594889099.128,-31.738,129.395,103.027,-47.363,0
1594889099.132,-18.066,241.699,106.934,-43.457,0
1594889099.136,-20.020,274.902,102.539,-48.340,0
1594889099.140,-20.020,-353.027,-190.918,-47.363,0
1594889099.144,-14.648,-503.418,-156.250,-39.551,0
1594889099.140,-11.230,369.629,170.898,-37.598,0
1594889099.144,-7.324,326.660,84.961,-42.480,0
1594889099.148,-4.395,40.527,-3.418,-43.945,0
1594889099.152,-2.441,-266.602,-147.461,-40.039,0
1594889099.156,10.742,-34.180,17.578,-44.922,0
1594889099.160,5.859,13.672,-38.086,-47.363,0
1594889099.164,-16.113,-313.477,-243.164,-41.016,0
1594889099.167,-18.555,-128.418,-167.969,-30.273,0
1594889099.171,-16.602,-652.832,-325.684,-17.578,0
1594889099.175,-18.066,-737.793,-239.746,-6.836,0
1594889099.179,-26.367,-100.586,-15.137,-12.207,0
1594889099.183,-33.203,128.418,69.824,-24.902,0
1594889099.196,-27.832,61.035,53.711,-24.414,0
1594889099.200,-27.832,-332.520,-168.457,-21.973,0
1594889099.204,-27.832,-250.488,-175.781,-26.367,0
1594889099.208,-26.367,19.531,-16.113,-39.551,0
1594889099.212,-29.297,336.426,183.105,-44.434,0
1594889099.216,-23.926,-90.820,-107.422,-46.387,0
1594889099.220,-28.320,-774.414,-344.238,-55.664,0
1594889099.223,-39.551,-208.984,23.926,-54.199,0
1594889099.227,-46.387,231.934,102.051,-44.434,0
1594889099.231,-50.293,261.230,125.977,-43.457,0
1594889099.235,-55.176,64.941,-28.809,-49.316,0
1594889099.239,-57.617,-134.766,-149.414,-58.105,0
1594889099.232,-41.016,125.977,73.242,-50.293,0
1594889099.236,-29.297,434.570,181.152,-45.898,0
1594889099.240,-31.250,323.730,57.129,-47.852,0
1594889099.244,-32.715,-131.348,-167.480,-42.969,0
1594889099.248,-33.691,-208.984,-189.941,-40.039,0
1594889099.252,-29.297,-186.523,-101.074,-38.086,0
1594889099.256,-24.414,-153.809,3.906,-32.227,0
1594889099.259,-37.598,-77.637,58.105,-27.344,0
1594889099.263,-47.363,-595.215,-290.527,-29.297,0
1594889099.267,-49.805,-971.680,-437.500,-29.297,0
1594889099.271,-48.828,-131.348,60.547,-32.227,0
1594889099.275,-41.504,450.684,184.570,-30.762,2
1594889099.288,-48.828,164.551,-10.254,-26.855,0
1594889099.292,-57.129,-73.730,-83.496,-31.738,0
1594889099.296,-47.363,299.316,127.441,-38.574,0
1594889099.300,-45.898,346.191,114.746,-33.691,0
1594889099.304,-55.176,217.285,55.664,-33.691,0
1594889099.308,-51.758,-390.137,-252.930,-33.691,0
1594889099.312,-43.457,-710.938,-333.008,-28.809,0
1594889099.315,-42.969,-104.492,34.180,-33.691,0
1594889099.319,-44.922,61.523,44.434,-31.738,0
1594889099.323,-39.551,238.770,98.145,-21.484,0
1594889099.327,-27.832,-257.812,-130.859,-21.973,0
1594889099.331,-21.973,-400.879,-186.035,-27.832,0
1594889099.326,-29.785,214.355,80.566,-35.645,0
1594889099.330,-40.039,152.832,34.180,-38.574,0
1594889099.334,-37.109,31.738,24.414,-32.715,0
1594889099.338,-34.180,-28.809,-3.418,-30.762,0
1594889099.342,-29.785,51.270,21.973,-32.227,0
1594889099.346,-26.855,-238.281,-178.711,-28.320,0
1594889099.350,-32.227,-334.961,-201.172,-23.926,0
1594889099.353,-26.855,125.000,109.863,-25.391,0
1594889099.357,-23.926,-38.086,-15.625,-29.785,0
1594889099.361,-35.645,-140.137,-154.297,-34.668,0
1594889099.365,-39.551,-230.469,-222.168,-30.762,0
1594889099.369,-32.715,-140.625,-77.148,-28.809,0
1594889099.382,-27.344,20.996,39.062,-37.598,0
1594889099.386,-28.320,-788.574,-403.809,-36.621,0
1594889099.390,-29.297,-811.035,-349.609,-37.109,0
1594889099.394,-27.344,49.805,55.176,-39.062,0
1594889099.398,-16.602,440.918,165.527,-32.227,0
1594889099.402,-12.695,-160.645,-180.664,-32.227,0
1594889099.406,-20.020,-753.418,-405.762,-37.598,0
1594889099.409,-19.531,-90.332,16.113,-43.457,0
1594889099.413,-21.484,376.465,166.016,-41.992,0
1594889099.417,-29.785,374.023,133.789,-37.109,0
1594889099.421,-29.785,-89.355,-80.566,-32.227,0
1594889099.425,-25.879,-93.262,-33.691,-38.086,0
1594889099.421,-19.043,294.434,172.363,-38.574,0
1594889099.425,-21.484,96.680,55.664,-32.227,0
1594889099.429,-30.762,27.832,0.488,-41.992,0
1594889099.433,-26.367,-269.043,-99.121,-39.062,0
1594889099.437,-20.020,-187.500,-4.883,-30.273,0
1594889099.441,-21.484,-34.668,28.809,-31.738,0
1594889099.445,-27.344,-258.301,-145.508,-29.785,0
1594889099.448,-29.785,-118.164,-173.340,-32.227,0
1594889099.452,-19.531,-662.598,-346.680,-29.785,0
1594889099.456,-16.113,-693.848,-193.848,-27.832,0
1594889099.460,-17.090,94.727,134.766,-37.109,0
1594889099.464,-27.832,138.672,80.078,-46.387,0
1594889099.476,-30.762,-77.637,-36.133,-40.527,0
1594889099.480,-12.695,-100.586,-60.547,-27.832,0
1594889099.484,-9.766,280.762,118.164,-25.879,0
1594889099.488,-22.949,124.023,29.785,-32.227,0
1594889099.492,-14.648,-87.402,17.090,-32.227,0
1594889099.496,-4.395,-271.973,-83.008,-26.367,0
1594889099.500,-16.602,-793.457,-334.473,-29.297,0
1594889099.503,-29.297,-366.211,-104.004,-34.180,0
1594889099.507,-25.391,169.922,99.121,-29.297,0
1594889099.511,-24.902,333.984,162.109,-30.273,0
1594889099.515,-32.227,242.676,133.789,-39.062,0
1594889099.519,-28.320,112.305,57.129,-36.133,0
1594889099.513,-33.691,135.742,53.711,-36.133,0
1594889099.517,-35.156,106.934,92.773,-44.434,0
1594889099.521,-23.926,172.852,91.797,-47.852,0
1594889099.525,-16.602,0.977,-18.066,-44.922,0
1594889099.529,-24.414,-46.387,-42.969,-41.504,0
1594889099.533,-25.391,-212.402,-150.391,-37.598,0
1594889099.537,-16.602,-324.707,-191.895,-31.250,0
1594889099.540,-21.484,-221.191,-137.207,-37.598,0
1594889099.544,-31.738,-734.375,-406.738,-33.691,0
1594889099.548,-36.621,-950.684,-408.203,-29.297,0
1594889099.552,-21.973,-126.953,55.664,-34.668,0
1594889099.556,-16.602,371.094,176.270,-28.809,0
1594889099.569,-26.367,69.824,-11.230,-29.297,0
1594889099.573,-34.668,-81.543,-75.684,-32.227,0
1594889099.577,-35.156,229.980,101.562,-27.832,0
1594889099.581,-34.668,167.969,63.477,-29.297,0
1594889099.585,-43.457,180.176,85.938,-35.645,0
1594889099.589,-46.387,-326.660,-198.242,-29.785,0
1594889099.593,-40.039,-656.738,-310.547,-17.090,0
1594889099.596,-34.180,64.453,101.074,-27.344,0
1594889099.600,-30.762,280.273,99.609,-44.434,0
1594889099.604,-31.250,-38.086,-92.285,-40.039,0
1594889099.608,-37.598,-722.168,-387.695,-35.156,0
1594889099.612,-36.621,-615.723,-191.895,-46.387,0
1594889099.607,-31.250,191.895,148.926,-50.293,0
1594889099.611,-28.809,220.703,53.223,-43.945,0
1594889099.615,-25.391,5.371,-8.789,-34.668,0
1594889099.619,-17.090,-101.074,-20.996,-27.832,0
1594889099.623,-20.508,154.297,98.633,-28.320,0
1594889099.627,-33.203,-25.391,-13.672,-28.809,0
1594889099.631,-39.551,-459.961,-267.090,-31.250,0
1594889099.634,-30.273,-139.648,-51.270,-31.738,0
1594889099.638,-21.973,-560.547,-228.516,-25.879,0
1594889099.642,-34.180,-706.055,-277.344,-26.855,0
1594889099.646,-40.039,8.301,58.594,-28.320,0
1594889099.650,-32.715,108.398,48.828,-24.902,0
1594889099.665,-34.180,-127.930,-102.051,-27.344,0
1594889099.669,-41.016,-567.383,-314.941,-29.297,0
1594889099.673,-42.969,-232.910,-62.500,-28.320,0
1594889099.677,-31.250,117.676,58.105,-30.762,0
1594889099.681,-17.578,304.688,161.133,-32.715,0
1594889099.685,-15.137,-218.750,-131.836,-26.855,0
1594889099.689,-21.973,-743.164,-390.137,-23.438,0
1594889099.692,-25.879,-179.688,-35.156,-28.320,0
1594889099.696,-26.855,220.703,124.023,-32.227,0
1594889099.700,-34.668,351.074,141.113,-31.250,0
1594889099.704,-37.598,-170.898,-131.836,-36.133,0
1594889099.708,-45.410,-283.691,-130.371,-41.504,0
1594889099.701,-61.523,224.121,123.535,-36.621,0
1594889099.705,-55.664,360.840,147.949,-34.668,0
1594889099.709,-48.340,171.875,29.785,-37.109,0
1594889099.713,-60.059,-327.148,-218.750,-42.480,0
1594889099.717,-53.711,-246.582,-96.191,-35.645,0
1594889099.721,-35.645,-171.875,-57.129,-27.832,0
1594889099.725,-34.668,-276.855,-168.945,-31.250,0
1594889099.728,-41.992,-2.930,-9.277,-40.527,0
1594889099.732,-41.016,-605.469,-314.453,-39.551,0
1594889099.736,-31.738,-912.598,-384.277,-36.133,0
1594889099.740,-28.809,-28.809,66.895,-44.434,0
1594889099.744,-43.945,389.648,153.320,-52.246,0
1594889099.757,-57.617,-162.109,-155.762,-54.688,0
1594889099.761,-45.898,-368.652,-192.871,-50.781,0
1594889099.765,-36.133,208.496,87.402,-47.852,0
1594889099.769,-44.922,200.195,55.664,-46.875,0
1594889099.773,-50.293,52.734,-54.688,-48.828,0
1594889099.777,-42.969,-489.746,-357.422,-51.270,0
1594889099.781,-35.645,-796.875,-333.496,-41.504,0
1594889099.784,-34.668,-258.301,-90.332,-41.504,0
1594889099.788,-39.062,-163.574,-181.641,-45.898,0
1594889099.792,-41.504,-64.453,-86.914,-40.527,0
1594889099.796,-35.645,-418.945,-166.504,-37.109,0
1594889099.800,-35.645,-574.707,-200.684,-41.992,0
1594889099.794,-46.875,163.086,135.742,-52.246,0
1594889099.798,-49.805,127.441,19.043,-48.340,0
1594889099.802,-46.875,-51.270,-13.184,-47.363,0
1594889099.806,-49.805,-143.555,-45.898,-60.547,0
1594889099.810,-51.270,-51.758,-5.859,-62.012,0
1594889099.814,-56.641,-238.770,-96.191,-45.898,0
1594889099.818,-68.359,-391.113,-217.773,-48.828,0
1594889099.821,-70.801,-83.008,-8.301,-48.828,0
1594889099.825,-71.289,-635.254,-330.566,-44.434,0
1594889099.829,-75.684,-904.785,-452.637,-58.594,0
1594889099.833,-68.359,-249.512,-3.906,-61.035,0
1594889099.837,-57.129,197.754,163.086,-56.641,0
1594889099.851,-46.387,-29.785,-76.172,-61.523,0
1594889099.855,-43.945,-529.785,-308.105,-58.105,0
1594889099.859,-47.852,-113.770,0.000,-54.688,0
1594889099.863,-41.992,422.363,214.844,-53.223,0
1594889099.867,-34.180,770.020,258.789,-47.852,0
1594889099.871,-34.668,94.238,-94.238,-41.992,0
1594889099.875,-47.852,-362.793,-153.320,-41.016,0
1594889099.878,-48.828,406.738,226.562,-49.316,0
1594889099.882,-34.668,604.980,179.199,-53.223,0
1594889099.886,-28.809,521.484,136.719,-48.340,0
1594889099.890,-33.203,-1.953,-60.547,-31.250,0
1594889099.894,-26.367,-190.918,-65.918,-21.484,0
1594889099.907,-18.555,265.625,144.043,-29.785,0
1594889099.911,-24.902,294.434,112.305,-26.367,0
1594889099.915,-40.039,170.410,69.824,-15.137,0
1594889099.919,-45.410,-219.727,-65.918,-10.742,0
1594889099.923,-42.480,-112.305,28.320,-13.672,0
1594889099.927,-39.551,-104.980,-59.570,-12.207,0
1594889099.931,-49.316,-354.980,-219.727,-10.254,0
1594889099.934,-52.734,41.016,59.082,-16.602,0
1594889099.938,-41.016,-513.672,-206.055,-11.719,0
1594889099.942,-33.203,-763.184,-270.996,-6.348,0
1594889099.946,-37.598,103.027,136.230,-14.648,0
1594889099.950,-47.852,332.031,129.395,-20.996,0
1594889099.944,-45.898,169.434,50.293,-20.508,0
1594889099.948,-36.133,127.930,46.875,-24.902,0
1594889099.952,-30.762,46.387,6.836,-34.180,0
1594889099.956,-28.809,-204.590,-144.531,-34.180,0
1594889099.960,-24.414,146.973,56.641,-24.902,0
1594889099.964,-18.555,-128.418,-62.500,-20.508,0
1594889099.968,-23.926,-590.820,-255.371,-30.273,0
1594889099.971,-34.668,-82.520,0.488,-38.086,0
1594889099.975,-37.109,113.281,61.523,-27.344,0
1594889099.979,-37.598,181.152,134.766,-18.555,0
1594889099.983,-37.109,-433.105,-229.492,-20.020,0
1594889099.987,-47.363,-762.695,-367.188,-20.996,0
1594889099.982,-51.758,-75.195,42.480,-29.297,0
1594889099.986,-45.898,262.695,143.555,-39.062,0
1594889099.990,-39.551,286.621,78.125,-40.527,0
1594889099.994,-29.785,99.609,-1.953,-36.133,0
1594889099.998,-29.785,-6.348,18.066,-35.645,0
1594889100.002,-28.809,-188.965,-52.734,-31.738,0
1594889100.006,-17.578,-243.164,-58.105,-35.645,0
1594889100.009,-17.090,-248.047,-94.727,-41.016,0
1594889100.013,-25.391,-736.328,-423.828,-25.391,0
1594889100.017,-22.949,-979.004,-424.805,-20.996,0
1594889100.021,-16.602,-129.395,60.547,-34.180,0
1594889100.025,-24.902,525.879,212.891,-39.062,0
1594889100.038,-31.250,125.977,-77.637,-38.574,1
1594889100.042,-28.809,-177.246,-154.297,-41.992,0
1594889100.046,-17.578,154.785,122.559,-35.645,0
1594889100.050,-21.484,200.684,81.055,-36.133,0
1594889100.054,-38.574,191.895,69.824,-42.969,0
1594889100.058,-34.668,-256.836,-144.043,-31.738,0
1594889100.062,-29.297,-478.027,-273.926,-30.762,0
1594889100.065,-17.578,81.055,52.734,-35.645,0
1594889100.069,-12.207,-77.148,-56.641,-32.715,0
1594889100.073,-22.949,106.445,37.598,-35.645,0
1594889100.077,-22.949,-116.699,-101.074,-38.574,0
1594889100.081,-18.066,-557.617,-238.281,-33.203,0
1594889100.076,-20.020,140.137,141.113,-32.715,0
1594889100.080,-25.391,217.285,78.125,-25.879,0
1594889100.084,-30.273,169.922,57.617,-19.531,0
1594889100.088,-29.785,229.004,127.441,-21.484,0
1594889100.092,-35.156,375.000,185.547,-23.926,0
1594889100.096,-40.527,8.301,-76.172,-23.926,0
1594889100.100,-32.715,-416.992,-259.277,-17.090,0
1594889100.103,-21.484,-73.730,24.902,-16.113,0
1594889100.107,-22.949,-508.301,-209.961,-20.020,0
1594889100.111,-28.320,-797.852,-388.184,-21.973,0
1594889100.115,-26.367,45.898,62.988,-31.250,0
1594889100.119,-19.531,247.559,166.504,-34.180,0
1594889100.132,-18.555,-41.504,0.488,-36.133,0
1594889100.136,-23.926,-202.637,-50.781,-38.086,0
1594889100.140,-30.273,71.289,104.492,-36.133,0
1594889100.144,-36.621,297.852,147.461,-40.527,0
1594889100.148,-34.668,541.016,196.777,-40.039,0
1594889100.152,-36.621,-51.270,-135.254,-38.086,0
1594889100.156,-36.621,-573.730,-243.652,-42.969,0
1594889100.159,-25.879,251.953,165.527,-38.086,0
1594889100.163,-23.438,572.754,215.332,-37.109,0
1594889100.167,-26.855,496.094,165.039,-41.016,0
1594889100.171,-28.320,59.082,-24.902,-42.969,0
1594889100.175,-30.273,49.316,54.199,-41.504,0
1594889100.171,-29.785,612.793,255.371,-36.621,0
1594889100.175,-33.203,508.301,142.578,-37.109,0
1594889100.179,-33.203,-26.855,-62.012,-39.551,0
1594889100.183,-31.738,-353.027,-122.559,-38.574,0
1594889100.187,-31.250,31.738,89.355,-32.227,0
1594889100.191,-30.273,142.090,94.238,-32.227,0
1594889100.195,-32.715,-6.836,35.156,-32.715,0
1594889100.198,-34.180,292.969,160.156,-28.809,0
1594889100.202,-32.227,-377.930,-152.832,-29.297,0
1594889100.206,-36.621,-502.930,-118.164,-33.691,0
1594889100.210,-43.457,428.711,234.863,-41.992,0
1594889100.214,-49.805,499.512,138.672,-47.363,0
1594889100.226,-42.969,340.332,116.699,-44.922,0
1594889100.230,-32.227,311.035,162.109,-43.945,0
1594889100.234,-33.203,569.336,217.773,-48.340,0
1594889100.238,-36.133,443.359,106.934,-46.875,0
1594889100.242,-27.832,268.555,98.145,-40.039,0
1594889100.246,-20.996,-56.641,-12.207,-37.109,0
1594889100.250,-27.832,-491.699,-174.805,-35.645,0
1594889100.253,-28.809,151.367,114.258,-31.738,0
1594889100.257,-31.250,526.855,179.199,-30.273,0
1594889100.261,-28.320,522.949,191.895,-31.738,0
1594889100.265,-22.949,187.500,60.547,-33.691,0
1594889100.269,-26.367,-41.992,-11.719,-39.062,0
1594889100.263,-29.785,394.043,167.480,-39.062,0
1594889100.267,-32.715,293.945,118.652,-36.133,0
1594889100.271,-33.691,255.371,119.141,-35.645,0
1594889100.275,-37.598,245.605,138.672,-32.227,0
1594889100.279,-39.062,195.801,84.473,-28.320,0
1594889100.283,-35.156,145.996,68.359,-19.531,0
1594889100.287,-33.203,81.543,145.508,-23.926,0
1594889100.290,-27.344,146.484,141.602,-28.320,0
1594889100.294,-29.297,-572.266,-282.715,-24.902,0
1594889100.298,-38.574,-942.383,-355.957,-31.250,0
1594889100.302,-39.551,22.949,126.465,-32.227,0
1594889100.306,-39.062,424.316,151.367,-35.645,0
1594889100.320,-38.086,185.547,50.781,-38.574,0
1594889100.324,-37.598,228.027,114.258,-36.133,0
1594889100.328,-36.133,627.930,229.980,-40.039,0
1594889100.332,-33.203,631.836,203.125,-41.016,0
1594889100.336,-40.527,535.645,203.613,-37.598,0
1594889100.340,-43.945,-75.684,-41.504,-40.039,0
1594889100.344,-41.016,-155.273,-1.465,-46.875,0
1594889100.347,-29.297,616.211,291.992,-43.457,0
1594889100.351,-20.508,610.840,190.430,-42.480,0
1594889100.355,-27.832,603.027,198.730,-51.758,0
1594889100.359,-30.762,-9.766,-10.742,-51.270,0
1594889100.363,-24.902,-216.797,-14.648,-42.969,0
1594889100.358,-27.832,609.863,278.809,-45.410,0
1594889100.362,-35.156,690.918,228.027,-44.922,0
1594889100.366,-35.645,309.082,118.164,-39.062,0
1594889100.370,-34.180,208.984,188.477,-41.016,0
1594889100.374,-33.203,589.355,258.301,-46.387,0
1594889100.378,-34.180,302.246,98.633,-43.945,0
1594889100.382,-33.691,175.781,144.531,-43.457,0
1594889100.385,-31.250,591.797,254.883,-42.969,0
1594889100.389,-23.926,-192.871,-112.793,-30.273,0
1594889100.393,-20.996,-461.426,-146.973,-28.809,0
1594889100.397,-18.555,380.859,202.148,-34.180,0
1594889100.401,-16.113,591.797,200.684,-33.691,0
1594889100.415,-12.695,481.934,170.898,-26.855,0
1594889100.419,-11.230,285.645,165.527,-29.785,0
1594889100.423,-20.996,535.645,208.008,-41.504,0
1594889100.427,-22.461,551.758,175.293,-38.086,0
1594889100.431,-24.414,660.156,260.742,-41.504,0
1594889100.435,-25.879,249.023,21.973,-43.457,0
1594889100.439,-21.484,-717.285,-290.039,-37.598,0
1594889100.442,-22.461,-284.180,26.367,-36.133,0
1594889100.446,-25.391,460.938,224.609,-36.133,0
1594889100.450,-26.855,490.234,157.715,-37.598,0
1594889100.454,-27.832,-96.191,-84.961,-29.785,0
1594889100.458,-27.344,-174.316,-48.340,-29.785,0
1594889100.451,-21.973,101.562,77.637,-33.203,0
1594889100.455,-23.438,92.285,68.359,-38.574,0
1594889100.459,-15.625,165.527,69.824,-36.133,0
1594889100.463,-16.113,-111.816,-82.520,-33.203,0
1594889100.467,-34.180,-251.465,-45.898,-42.969,0
1594889100.471,-30.762,-151.367,63.965,-42.480,0
1594889100.475,-24.902,-95.215,30.762,-37.109,0
1594889100.478,-24.414,98.633,67.383,-39.551,0
1594889100.482,-18.555,-550.781,-303.711,-39.062,0
1594889100.486,-16.113,-963.867,-375.488,-37.109,0
1594889100.490,-21.484,-48.340,113.770,-49.805,0
1594889100.494,-27.832,444.336,161.621,-58.105,0
1594889100.507,-35.156,145.508,48.340,-59.082,0
1594889100.511,-34.668,61.523,78.613,-57.617,0
1594889100.515,-26.367,518.066,207.031,-56.152,0
1594889100.519,-18.066,496.094,151.855,-53.711,0
1594889100.523,-12.207,289.551,101.562,-46.875,0
1594889100.527,-15.625,-170.898,-118.164,-40.039,0
1594889100.531,-15.137,-573.242,-225.098,-36.621,0
1594889100.534,-18.066,-214.844,14.648,-43.945,0
1594889100.538,-25.879,87.891,74.707,-42.969,0
1594889100.542,-26.855,433.594,190.918,-43.945,0
1594889100.546,-26.855,41.504,18.066,-36.621,0
1594889100.550,-37.598,-219.238,-77.637,-32.715,0
1594889100.544,-53.711,326.660,135.254,-40.039,0
1594889100.548,-52.734,363.770,130.859,-34.668,0
1594889100.552,-41.016,401.367,169.922,-33.691,0
1594889100.556,-41.992,185.547,108.398,-36.133,0
1594889100.560,-44.922,41.504,54.688,-36.621,0
1594889100.564,-46.387,-132.812,-57.617,-37.598,0
1594889100.568,-45.898,-146.484,-11.230,-45.898,0
1594889100.571,-37.109,272.461,157.715,-48.340,0
1594889100.575,-31.738,-368.652,-180.176,-43.457,0
1594889100.579,-31.250,-716.797,-348.145,-40.527,0
1594889100.583,-26.367,-112.793,-73.730,-42.969,0
1594889100.587,-13.184,242.676,131.836,-45.410,0
1594889100.601,-2.930,285.645,124.023,-42.969,0
1594889100.605,-12.695,-594.727,-262.207,-39.551,0
1594889100.609,-23.438,-486.816,-138.672,-38.086,0
1594889100.613,-19.531,422.363,208.496,-33.203,0
1594889100.617,-20.508,386.230,131.836,-27.344,0
1594889100.621,-31.738,-231.445,-140.625,-27.344,0
1594889100.625,-43.457,-669.434,-322.754,-32.227,0
1594889100.628,-45.410,-15.625,50.781,-30.273,0
1594889100.632,-43.945,438.477,185.547,-26.367,0
1594889100.636,-43.457,388.672,115.234,-23.926,0
1594889100.640,-42.480,-108.398,-35.645,-22.461,0
1594889100.644,-40.527,-168.945,1.953,-29.297,0
1594889100.640,-38.574,-59.082,33.203,-38.574,0
1594889100.644,-40.039,-118.164,19.043,-44.434,0
1594889100.648,-41.992,79.102,71.289,-40.039,0
1594889100.652,-38.086,-256.836,-84.961,-33.203,0
1594889100.656,-32.715,-334.473,-56.641,-38.574,0
1594889100.660,-29.297,-242.676,-126.953,-32.227,0
1594889100.664,-36.133,-330.566,-235.352,-27.832,0
1594889100.667,-41.992,-90.332,-48.340,-30.273,0
1594889100.671,-36.133,-599.609,-306.152,-27.344,0
1594889100.675,-40.039,-899.902,-422.852,-27.832,0
1594889100.679,-48.828,-310.547,-171.387,-30.762,0
1594889100.683,-44.434,-48.340,-168.945,-27.344,0
1594889100.694,-31.250,-238.281,-258.301,-22.461,0
1594889100.698,-22.949,-302.734,-200.195,-25.879,0
1594889100.702,-28.320,-151.367,-139.160,-29.785,0
1594889100.706,-31.250,-461.426,-335.938,-26.367,0
1594889100.710,-32.227,-302.734,-197.266,-25.879,0
1594889100.714,-28.320,-459.961,-362.305,-26.367,0
1594889100.718,-22.949,-969.727,-588.379,-24.902,0
1594889100.721,-28.320,-629.395,-339.355,-32.715,0
1594889100.725,-31.738,-382.812,-295.410,-35.156,0
1594889100.729,-27.344,-269.043,-262.207,-28.809,0
1594889100.733,-21.973,-437.012,-297.363,-27.832,0
1594889100.737,-27.344,-484.375,-303.711,-38.574,0
1594889100.732,-37.598,-307.617,-300.781,-45.410,0
1594889100.736,-40.039,-378.906,-300.781,-43.457,0
1594889100.740,-33.203,-406.738,-337.402,-35.645,0
1594889100.744,-31.250,-717.285,-442.871,-31.738,0
1594889100.748,-37.109,-770.996,-418.457,-38.574,0
1594889100.752,-33.691,-842.773,-447.266,-37.598,0
1594889100.756,-22.949,-930.664,-435.059,-35.156,0
1594889100.759,-28.320,-825.195,-372.070,-41.504,0
1594889100.763,-41.016,-935.547,-568.359,-31.250,0
1594889100.767,-44.434,-943.848,-591.797,-25.879,0
1594889100.771,-36.133,-472.656,-227.539,-33.691,0
1594889100.775,-33.203,-43.945,-191.895,-32.715,0
1594889100.788,-42.969,-174.316,-320.801,-35.645,0
1594889100.792,-45.898,-376.953,-307.617,-35.156,2
1594889100.796,-37.109,-120.117,-176.758,-34.668,0
1594889100.800,-30.273,-180.664,-240.234,-36.133,0
1594889100.804,-37.598,-285.645,-262.695,-43.945,0
1594889100.808,-38.574,-661.621,-448.242,-41.504,0
1594889100.812,-31.738,-765.137,-429.688,-32.227,0
1594889100.815,-28.320,-96.680,-74.707,-29.297,0
1594889100.819,-32.715,-117.676,-193.848,-26.855,0
1594889100.823,-37.598,-363.770,-291.016,-36.621,0
1594889100.827,-35.156,-727.051,-394.531,-31.738,0
1594889100.831,-26.855,-580.078,-242.676,-27.832,0
1594889100.826,-25.879,32.715,-5.859,-35.156,0
1594889100.830,-39.551,63.477,-115.723,-36.133,0
1594889100.834,-43.457,133.789,-50.781,-32.227,0
1594889100.838,-45.898,-144.531,-145.020,-29.785,0
1594889100.842,-55.176,-172.852,-179.688,-37.598,0
1594889100.846,-56.641,-357.910,-321.777,-32.227,0
1594889100.850,-54.199,-355.469,-186.523,-26.367,0
1594889100.853,-51.270,69.824,57.129,-28.320,0
1594889100.857,-50.781,-577.148,-334.961,-24.902,0
1594889100.861,-43.945,-827.148,-438.965,-28.320,0
1594889100.865,-34.180,-37.598,4.883,-34.668,0
1594889100.869,-25.391,96.191,33.691,-39.062,0
1594889100.882,-22.949,-181.641,-145.508,-40.039,0
1594889100.886,-31.738,-400.391,-248.047,-35.156,0
1594889100.890,-38.574,-195.801,-189.941,-26.367,0
1594889100.894,-31.738,3.418,-70.312,-29.297,0
1594889100.898,-25.391,135.254,52.734,-37.598,0
1594889100.902,-29.297,-335.938,-273.926,-38.574,0
1594889100.906,-42.969,-709.961,-433.105,-39.062,0
1594889100.909,-40.527,-37.598,24.902,-44.434,0
1594889100.913,-24.902,163.574,106.934,-36.133,0
1594889100.917,-30.273,154.785,66.895,-42.969,0
1594889100.921,-39.062,-204.590,-83.496,-44.922,0
1594889100.925,-35.645,-395.996,-212.891,-33.691,0
1594889100.919,-26.855,71.777,22.461,-36.621,0
1594889100.923,-20.996,147.949,102.051,-45.898,0
1594889100.927,-17.578,-209.473,-201.660,-40.527,0
1594889100.931,-21.973,-631.836,-327.148,-31.738,0
1594889100.935,-27.832,-385.742,-124.023,-36.621,0
1594889100.939,-31.738,-212.891,-171.387,-40.039,0
1594889100.943,-46.875,-419.434,-283.691,-37.109,0
1594889100.946,-55.664,-265.625,-209.473,-33.691,0
1594889100.950,-53.223,-710.449,-382.324,-33.691,0
1594889100.954,-39.551,-773.438,-336.914,-31.250,0
1594889100.958,-35.645,16.113,20.020,-34.668,0
1594889100.962,-40.039,212.402,53.711,-40.527,0
1594889100.976,-30.762,86.426,16.602,-42.969,0
1594889100.980,-28.320,41.992,0.977,-43.457,0
1594889100.984,-34.180,72.266,-21.973,-44.434,0
1594889100.988,-38.086,103.516,3.906,-33.691,0
1594889100.992,-37.598,129.883,60.547,-28.809,0
1594889100.996,-26.367,-342.285,-234.863,-28.809,0
1594889101.000,-22.949,-738.281,-400.391,-26.367,0
1594889101.003,-33.691,-331.055,-125.000,-28.320,0
1594889101.007,-38.086,-36.621,-9.277,-26.855,0
1594889101.011,-34.180,198.242,116.699,-32.227,0
1594889101.015,-27.832,-208.984,-143.066,-34.180,0
1594889101.019,-35.645,-667.480,-320.801,-36.133,0
1594889101.013,-42.969,-130.371,-88.379,-37.109,0
1594889101.017,-35.156,116.699,-22.949,-35.645,0
1594889101.021,-34.668,88.379,17.090,-36.621,0
1594889101.025,-46.875,-175.781,-143.555,-39.551,0
1594889101.029,-51.270,-235.840,-215.820,-40.527,0
1594889101.033,-47.852,-287.109,-246.094,-39.062,0
1594889101.037,-48.340,-114.258,-64.941,-41.504,0
1594889101.040,-48.828,-41.016,-8.301,-41.016,0
1594889101.044,-55.176,-741.211,-468.750,-32.715,0
1594889101.048,-64.453,-914.551,-481.934,-39.062,0
1594889101.052,-60.059,-121.582,25.879,-40.527,0
1594889101.056,-52.246,237.305,92.285,-34.180,0
1594889101.069,-63.965,-28.320,-40.527,-41.016,0
1594889101.073,-73.242,-170.898,-18.066,-39.062,0
1594889101.077,-62.500,170.898,111.328,-34.668,0
1594889101.081,-60.059,366.211,125.000,-39.062,0
1594889101.085,-65.430,445.801,137.695,-39.551,0
1594889101.089,-57.617,-128.906,-175.293,-31.250,0
1594889101.093,-50.293,-430.176,-187.500,-28.320,0
1594889101.096,-40.039,329.590,206.055,-35.645,0
1594889101.100,-30.273,426.758,138.672,-37.109,0
1594889101.104,-41.504,273.926,98.633,-38.086,0
1594889101.108,-43.457,-127.441,-68.359,-44.434,0
1594889101.112,-33.691,-402.344,-213.379,-39.062,0
1594889101.108,-33.691,45.410,-13.672,-40.039,0
1594889101.112,-43.457,217.285,94.727,-46.387,0
1594889101.116,-42.969,-87.402,-114.258,-38.086,0
1594889101.120,-32.715,-565.918,-275.391,-34.180,0
1594889101.124,-26.367,-372.559,-52.734,-42.969,0
1594889101.128,-36.133,-362.793,-208.984,-44.922,0
1594889101.132,-44.922,-688.477,-361.328,-41.504,0
1594889101.135,-42.480,-213.379,-67.871,-41.504,0
1594889101.139,-43.945,-572.266,-317.383,-36.133,0
1594889101.143,-47.363,-729.980,-378.418,-38.086,0
1594889101.147,-41.016,-149.414,-111.816,-35.645,0
1594889101.151,-33.691,-199.707,-192.383,-31.738,0
1594889101.165,-26.367,-226.562,-152.344,-36.133,0
1594889101.169,-24.902,-282.715,-197.754,-36.133,0
1594889101.173,-28.809,-333.984,-238.281,-39.062,0
1594889101.177,-29.785,-245.605,-202.637,-39.062,0
1594889101.181,-23.926,106.445,15.137,-31.250,0
1594889101.185,-25.391,-112.305,-90.820,-27.832,0
1594889101.189,-44.434,-692.871,-270.508,-28.320,0
1594889101.192,-42.480,-198.242,3.906,-32.715,0
1594889101.196,-31.738,608.887,218.750,-32.227,0
1594889101.200,-29.297,632.324,152.344,-27.344,0
1594889101.204,-22.949,188.477,39.551,-26.855,0
1594889101.208,-15.625,-3.418,47.852,-29.297,0
1594889101.201,-16.602,239.746,121.582,-33.691,0
1594889101.205,-23.926,380.371,138.184,-37.109,0
1594889101.209,-22.949,389.160,132.324,-30.762,0
1594889101.213,-22.461,123.047,1.953,-18.066,0
1594889101.217,-29.785,-51.758,-77.148,-35.645,0
1594889101.221,-27.832,-133.301,-123.535,-50.293,0
1594889101.225,-21.973,-237.793,-215.820,-40.527,0
1594889101.228,-37.598,-318.359,-244.629,-37.598,0
1594889101.232,-44.434,-768.066,-445.312,-34.180,0
1594889101.236,-30.762,-913.086,-387.695,-23.926,0
1594889101.240,-25.391,-86.914,79.102,-28.809,0
1594889101.244,-23.438,348.633,118.652,-40.039,0
1594889101.257,-16.602,64.941,-18.555,-35.156,0
1594889101.261,-8.789,-83.984,-27.344,-30.762,0
1594889101.265,-6.348,133.301,83.008,-33.691,0
1594889101.269,-3.418,115.234,45.898,-32.227,0
1594889101.273,-10.254,58.594,0.977,-30.762,0
1594889101.277,-16.602,-407.715,-272.461,-24.902,0
1594889101.281,-15.137,-560.547,-229.492,-31.250,0
1594889101.284,-18.555,-73.730,51.270,-45.410,0
1594889101.288,-26.855,-47.852,3.906,-46.387,0
1594889101.292,-22.949,265.625,207.031,-51.270,0
1594889101.296,-18.066,1.465,16.602,-52.246,0
1594889101.300,-23.438,-417.480,-209.473,-41.504,0
1594889101.294,-41.016,-64.941,-4.395,-27.832,0
1594889101.298,-68.359,77.637,62.988,-24.414,0
1594889101.302,-73.730,223.633,122.070,-33.691,0
1594889101.306,-62.500,28.809,-30.762,-33.691,0
1594889101.310,-61.523,-200.684,-226.562,-31.250,0
1594889101.314,-55.176,-429.688,-286.621,-28.809,0
1594889101.318,-47.852,-388.672,-178.711,-25.879,0
1594889101.321,-46.875,-80.078,-1.465,-33.691,0
1594889101.325,-45.410,-638.184,-344.727,-36.621,0
1594889101.329,-44.922,-872.559,-475.586,-37.109,0
1594889101.333,-43.945,-390.625,-191.895,-43.457,0
1594889101.337,-26.855,-34.668,-12.695,-42.969,0
1594889101.351,-23.926,10.254,-41.504,-39.551,0
1594889101.355,-31.250,-435.547,-284.180,-37.109,0
1594889101.359,-19.043,-116.699,-29.785,-34.180,0
1594889101.363,-13.672,372.070,115.723,-35.645,0
1594889101.367,-19.043,525.391,154.297,-43.457,0
1594889101.371,-22.461,-114.258,-173.828,-39.551,0
1594889101.375,-19.043,-678.711,-403.809,-32.715,0
1594889101.378,-13.672,-32.227,4.395,-41.504,0
1594889101.382,-19.043,386.719,118.164,-51.270,0
1594889101.386,-29.297,337.891,62.988,-52.246,0
1594889101.390,-18.555,-263.672,-207.031,-35.156,0
1594889101.394,-12.695,-251.953,-120.117,-30.273,0
1594889101.390,-23.926,317.383,122.559,-48.340,0
1594889101.394,-9.277,-35.645,-149.414,-41.016,0
1594889101.398,-11.719,-84.473,-224.121,-41.992,0
1594889101.402,-38.086,-201.172,-143.066,-47.363,0
1594889101.406,-29.785,-71.289,18.555,-38.086,0
1594889101.410,-26.855,33.691,-80.078,-45.898,0
1594889101.414,-34.180,-183.594,-254.395,-46.387,0
1594889101.417,-26.367,166.992,-32.715,-35.645,0
1594889101.421,-18.066,-367.188,-202.637,-25.879,0
1594889101.425,-11.230,-600.586,-252.930,-23.438,0
1594889101.429,-17.578,121.094,26.367,-35.156,0
1594889101.433,-25.879,243.652,-14.648,-36.621,0
1594889101.445,-30.762,148.438,13.184,-32.715,0
1594889101.449,-33.691,180.664,74.219,-35.156,0
1594889101.453,-30.273,257.812,39.062,-37.598,0
1594889101.457,-36.133,180.664,12.695,-35.645,0
1594889101.461,-41.016,85.938,22.949,-31.250,0
1594889101.465,-41.016,-316.895,-270.996,-33.691,0
1594889101.469,-43.457,-825.684,-428.223,-29.785,0
1594889101.472,-43.945,-293.457,-28.809,-26.855,0
1594889101.476,-38.086,299.805,120.605,-29.785,0
1594889101.480,-32.715,322.266,123.047,-29.785,0
1594889101.484,-26.367,43.945,-44.434,-30.762,0
1594889101.488,-20.508,20.996,-59.570,-34.668,0
1594889101.482,-24.414,281.738,113.281,-40.039,0
1594889101.486,-23.926,353.516,148.438,-40.039,0
1594889101.490,-25.879,355.469,64.453,-38.086,0
1594889101.494,-26.367,-158.203,-222.168,-36.621,0
1594889101.498,-16.602,-287.598,-244.141,-34.180,0
1594889101.502,-15.137,-310.547,-252.441,-34.668,0
1594889101.506,-17.578,-447.754,-267.090,-33.691,0
1594889101.509,-17.090,-420.898,-242.188,-27.832,0
1594889101.513,-15.137,-782.715,-459.961,-26.855,0
1594889101.517,-16.602,-1000.000,-556.152,-25.391,0
1594889101.521,-24.414,-404.785,-153.809,-32.227,0
1594889101.525,-37.109,162.598,124.023,-31.250,0
1594889101.538,-52.734,-41.504,-29.297,-29.785,0
1594889101.542,-62.012,-149.414,-139.648,-36.621,0
1594889101.546,-55.664,278.809,108.887,-37.598,0
1594889101.550,-37.598,462.891,145.020,-39.062,0
1594889101.554,-25.879,139.648,-32.227,-38.574,0
1594889101.558,-22.461,-398.926,-320.312,-39.551,0
1594889101.562,-20.020,-703.613,-388.184,-34.668,0
1594889101.565,-21.484,-182.617,-41.504,-33.203,0
1594889101.569,-22.949,-1.465,-63.965,-34.668,0
1594889101.573,-20.020,-52.734,-102.051,-28.809,0
1594889101.577,-14.160,-273.438,-144.043,-26.855,0
1594889101.581,-6.836,-244.141,-123.047,-37.598,0
1594889101.576,-9.277,194.336,73.242,-42.480,0
1594889101.580,-20.508,190.430,45.410,-35.156,0
1594889101.584,-25.879,252.441,93.262,-31.250,0
1594889101.588,-25.391,105.957,12.695,-33.203,0
1594889101.592,-28.809,111.816,35.156,-38.086,0
1594889101.596,-30.273,-101.562,-105.469,-32.227,0
1594889101.600,-25.879,-397.949,-309.570,-27.344,0
1594889101.603,-22.949,9.766,-23.438,-28.320,0
1594889101.607,-23.438,-446.777,-226.562,-35.156,0
1594889101.611,-24.902,-835.938,-438.477,-40.039,0
1594889101.615,-28.809,-64.453,-22.949,-37.598,0
1594889101.619,-26.855,245.605,137.695,-40.527,0
1594889101.633,-20.020,81.055,19.043,-35.645,0
1594889101.637,-21.484,-133.301,-83.008,-36.621,0
1594889101.641,-20.508,-1.953,11.230,-42.969,0
1594889101.645,-17.578,135.742,55.176,-36.133,0
1594889101.649,-16.113,236.816,97.656,-41.504,0
1594889101.653,-20.020,-255.859,-266.602,-48.828,2
1594889101.657,-27.344,-851.074,-464.844,-38.574,0
1594889101.660,-23.926,-236.328,25.391,-41.504,0
1594889101.664,-24.902,440.918,240.234,-46.875,0
1594889101.668,-31.250,421.875,134.277,-34.668,0
1594889101.672,-31.250,-136.230,-133.789,-26.855,0
1594889101.676,-26.855,-177.734,-73.242,-26.855,0
1594889101.669,-25.391,304.688,133.789,-30.273,0
1594889101.673,-28.809,315.430,106.445,-29.297,0
1594889101.677,-30.762,30.273,-13.672,-27.832,0
1594889101.681,-31.738,-226.562,-174.316,-27.344,0
1594889101.685,-30.762,-18.066,-22.461,-35.645,0
1594889101.689,-22.461,-58.594,-39.062,-47.363,0
1594889101.693,-23.438,-144.043,-102.539,-48.340,0
1594889101.696,-25.391,171.875,88.867,-47.852,0
1594889101.700,-22.461,-457.031,-237.305,-39.551,0
1594889101.704,-35.156,-973.633,-406.250,-31.738,0
1594889101.708,-37.598,-301.270,-29.785,-38.086,0
1594889101.712,-32.715,145.020,85.449,-38.574,0
1594889101.726,-31.250,127.930,52.246,-34.668,0
1594889101.730,-21.973,123.535,69.336,-33.203,0
1594889101.734,-21.973,304.688,105.957,-33.203,0
1594889101.738,-30.273,220.703,52.246,-26.367,0
1594889101.742,-29.297,115.723,65.918,-20.020,0
1594889101.746,-27.832,-241.211,-173.340,-19.043,0
1594889101.750,-37.598,-805.176,-410.645,-20.508,0
1594889101.753,-46.875,-431.641,-165.039,-23.926,0
1594889101.757,-52.734,159.668,83.984,-26.367,0
1594889101.761,-49.805,221.680,115.234,-29.785,0
1594889101.765,-44.922,-344.727,-150.879,-23.438,0
1594889101.769,-50.781,-420.410,-224.121,-26.855,0
1594889101.763,-54.199,86.426,8.789,-40.039,0
1594889101.767,-43.945,231.445,77.637,-46.875,0
1594889101.771,-40.039,313.477,83.496,-49.316,0
1594889101.775,-37.598,-68.848,-81.543,-50.781,0
1594889101.779,-34.180,-139.160,-51.270,-50.293,0
1594889101.783,-34.668,-246.582,-104.492,-41.992,0
1594889101.787,-34.668,-396.484,-201.172,-44.922,0
1594889101.790,-36.133,-9.766,-9.277,-51.270,0
1594889101.794,-35.156,-553.711,-333.008,-36.133,0
1594889101.798,-38.086,-859.375,-385.742,-27.344,0
1594889101.802,-32.227,15.137,85.449,-35.645,0
1594889101.806,-37.109,376.953,89.355,-39.551,0
1594889101.819,-49.805,32.715,-102.539,-33.203,0
1594889101.823,-46.875,-286.133,-127.441,-35.156,0
1594889101.827,-41.016,71.777,76.660,-43.457,0
1594889101.831,-42.480,264.160,89.355,-48.828,0
1594889101.835,-46.387,270.020,99.121,-49.805,0
1594889101.839,-49.316,-289.551,-230.469,-42.480,0
1594889101.843,-47.852,-627.441,-334.961,-31.738,0
1594889101.846,-37.598,164.551,115.234,-29.785,0
1594889101.850,-33.203,383.301,122.070,-21.484,0
1594889101.854,-31.738,227.539,34.668,-14.648,0
1594889101.858,-29.297,-96.191,-89.355,-23.926,0
1594889101.862,-21.484,-79.590,0.977,-28.320,0
1594889101.858,-13.672,20.508,-4.883,-31.738,0
1594889101.862,-12.695,-24.902,-42.969,-32.715,0
1594889101.866,-6.836,106.934,28.320,-25.391,0
1594889101.870,-1.465,-357.422,-154.785,-26.367,0
1594889101.874,-5.371,-181.641,13.672,-34.668,0
1594889101.878,-20.508,6.348,-29.297,-41.504,0
1594889101.882,-30.273,-284.668,-220.215,-47.363,0
1594889101.885,-28.320,92.773,44.434,-46.387,0
1594889101.889,-25.391,-435.547,-202.148,-39.551,0
1594889101.893,-27.832,-819.824,-404.785,-41.504,0
1594889101.897,-34.668,-40.039,3.906,-44.434,0
1594889101.901,-31.250,341.309,159.180,-34.180,0
1594889101.913,-22.949,209.961,74.707,-28.809,0
1594889101.917,-23.926,-26.855,-25.879,-32.715,0
1594889101.921,-24.414,25.879,-28.809,-33.691,0
1594889101.925,-23.926,-40.527,-60.547,-36.621,0
1594889101.929,-21.484,21.973,57.617,-41.504,0
1594889101.933,-37.109,-280.762,-166.504,-38.574,0
1594889101.937,-52.734,-938.965,-525.391,-29.785,0
1594889101.940,-47.852,-524.902,-158.691,-36.133,0
1594889101.944,-39.062,265.137,180.664,-41.016,0
1594889101.948,-29.297,292.969,70.801,-35.156,0
1594889101.952,-41.504,-233.887,-173.828,-42.480,0
1594889101.956,-41.504,-333.008,-214.355,-48.828,0
1594889101.951,-24.902,-11.230,-35.645,-46.875,0
1594889101.955,-21.484,209.473,133.789,-46.875,0
1594889101.959,-21.973,131.836,29.297,-43.945,0
1594889101.963,-23.438,-274.902,-178.223,-34.668,0
1594889101.967,-22.949,-194.824,-94.238,-29.785,0
1594889101.971,-24.414,-166.016,-101.074,-26.855,0
1594889101.975,-31.738,-363.770,-251.465,-26.367,0
1594889101.978,-31.738,-259.766,-212.891,-28.320,0
1594889101.982,-34.668,-644.531,-352.051,-27.344,0
1594889101.986,-37.109,-962.891,-370.605,-31.738,0
1594889101.990,-29.297,-257.812,-15.137,-36.133,0
1594889101.994,-27.344,178.223,72.754,-35.156,0
1594889102.007,-23.926,141.113,64.941,-33.691,0
1594889102.011,-17.090,73.242,81.055,-36.133,0
1594889102.015,-14.648,219.238,82.031,-40.039,0
1594889102.019,-23.438,114.258,-10.742,-39.551,0
1594889102.023,-32.227,42.969,7.324,-38.086,0
1594889102.027,-35.156,-305.176,-234.863,-36.621,0
1594889102.031,-39.551,-675.781,-357.910,-39.062,0
1594889102.034,-33.203,-227.051,2.930,-42.480,0
1594889102.038,-30.762,-139.648,-59.082,-39.062,0
1594889102.042,-31.250,-83.008,-49.805,-43.945,0
1594889102.046,-26.855,-125.977,-10.254,-47.852,0
1594889102.050,-36.621,-138.184,-27.832,-44.922,0
1594889102.044,-47.363,188.477,93.262,-41.016,0
1594889102.048,-41.992,121.094,47.363,-36.621,0
1594889102.052,-29.785,153.809,93.750,-32.715,0
1594889102.056,-28.809,-83.008,-42.969,-30.273,0
1594889102.060,-33.203,-78.125,-88.867,-36.621,0
1594889102.064,-34.180,-219.727,-158.203,-34.180,0
1594889102.068,-31.738,-219.727,-45.898,-27.832,0
1594889102.071,-25.391,170.898,103.027,-25.391,0
1594889102.075,-24.902,-575.195,-404.785,-20.508,0
1594889102.079,-25.391,-843.750,-435.547,-17.090,0
1594889102.083,-14.160,-86.426,9.766,-22.949,0
1594889102.087,-11.230,53.711,72.754,-32.227,0
1594889102.101,-22.949,-31.250,1.465,-30.273,0
1594889102.105,-30.273,-192.383,-139.648,-31.250,0
1594889102.109,-29.785,6.348,-37.598,-38.574,0
1594889102.113,-26.855,217.773,74.219,-40.527,0
1594889102.117,-39.551,299.316,136.230,-44.922,0
1594889102.121,-50.781,-195.801,-176.270,-48.828,0
1594889102.125,-46.387,-600.586,-346.680,-45.898,0
1594889102.128,-39.062,40.527,59.570,-42.969,0
1594889102.132,-38.086,312.988,131.348,-41.504,0
1594889102.136,-44.922,221.680,54.199,-44.434,0
1594889102.140,-44.434,-37.109,-47.363,-42.480,0
1594889102.144,-39.551,-25.879,-6.348,-36.133,0
1594889102.139,-35.156,204.102,68.359,-36.621,0
1594889102.143,-36.133,77.637,5.371,-38.574,0
1594889102.147,-40.527,-288.086,-208.496,-35.156,0
1594889102.151,-32.715,-595.215,-264.160,-24.902,0
1594889102.155,-22.461,-200.195,14.648,-23.926,0
1594889102.159,-19.531,-104.980,-78.613,-34.668,0
1594889102.163,-25.391,-231.445,-211.426,-39.062,0
1594889102.166,-27.832,122.070,13.672,-35.645,0
1594889102.170,-21.973,-482.910,-236.816,-32.227,0
1594889102.174,-26.855,-785.645,-377.441,-34.180,0
1594889102.178,-43.945,-32.715,-10.742,-35.645,0
1594889102.182,-43.457,81.543,-22.461,-34.180,0
1594889102.194,-32.715,28.809,0.488,-35.645,0
1594889102.198,-41.504,154.297,118.652,-34.668,0
1594889102.202,-47.852,273.438,78.613,-34.180,0
1594889102.206,-40.039,99.609,-22.461,-39.551,0
1594889102.210,-22.461,34.180,43.457,-36.133,0
1594889102.214,-12.695,-286.133,-146.484,-27.832,0
1594889102.218,-17.090,-768.066,-398.926,-24.414,0
1594889102.221,-26.367,-500.000,-235.840,-30.273,0
1594889102.225,-34.180,-101.074,-74.707,-35.156,0
1594889102.229,-30.762,165.039,89.355,-31.250,0
1594889102.233,-36.133,-300.293,-175.781,-24.902,0
1594889102.237,-43.457,-659.668,-334.961,-29.785,0
1594889102.232,-37.598,-10.254,55.176,-39.551,0
1594889102.236,-30.762,241.699,144.043,-41.504,0
1594889102.240,-37.598,102.539,54.199,-43.945,0
1594889102.244,-53.223,-266.113,-154.297,-44.922,0
1594889102.248,-52.734,-175.293,-77.148,-48.828,0
1594889102.252,-40.039,-160.156,-8.789,-52.246,0
1594889102.256,-37.109,-162.598,0.488,-49.316,0
1594889102.259,-38.574,-4.883,-10.742,-50.293,0
1594889102.263,-41.016,-648.926,-363.281,-39.551,0
1594889102.267,-36.621,-918.457,-376.953,-34.180,0
1594889102.271,-33.691,-23.438,92.285,-45.898,0
1594889102.275,-35.645,338.867,145.996,-48.828,0
1594889102.288,-28.809,-4.395,-23.438,-44.434,0
1594889102.292,-23.438,-176.758,-29.785,-42.969,0
1594889102.296,-25.879,143.066,110.840,-47.852,0
1594889102.300,-35.156,252.930,99.609,-43.945,0
1594889102.304,-36.621,132.324,33.203,-41.504,0
1594889102.308,-31.250,-307.617,-233.398,-42.480,0
1594889102.312,-26.855,-426.758,-173.340,-41.504,0
1594889102.315,-22.949,158.203,122.070,-40.527,0
1594889102.319,-26.367,164.551,29.785,-39.551,0
1594889102.323,-29.297,214.844,131.836,-40.039,0
1594889102.327,-19.043,-245.605,-114.746,-31.738,0
1594889102.331,-7.324,-590.820,-218.750,-31.738,0
1594889102.327,-11.230,108.398,126.465,-40.039,0
1594889102.331,-14.160,269.043,88.867,-38.574,0
1594889102.335,-10.742,197.266,56.152,-33.691,0
1594889102.339,-6.836,85.938,50.781,-34.180,0
1594889102.343,-11.230,194.336,73.242,-37.598,0
1594889102.347,-21.973,-128.906,-184.570,-37.109,0
1594889102.351,-29.297,-335.449,-248.535,-36.621,0
1594889102.354,-30.762,201.660,95.703,-32.227,0
1594889102.358,-29.785,-425.293,-209.961,-23.926,0
1594889102.362,-28.320,-822.266,-369.141,-22.949,0
1594889102.366,-21.484,132.324,71.777,-23.926,0
1594889102.370,-8.789,584.961,192.871,-22.949,0
1594889102.383,0.000,304.688,33.203,-26.855,0
1594889102.387,-12.695,-169.922,-207.520,-30.762,0
1594889102.391,-18.066,-3.418,-73.242,-29.297,0
1594889102.395,-10.254,332.520,110.840,-27.344,0
1594889102.399,-17.578,446.777,152.832,-33.691,0
1594889102.403,-20.508,-84.961,-151.367,-35.645,0
1594889102.407,-15.137,-908.691,-514.160,-31.738,0
1594889102.410,-19.043,-397.461,-103.027,-36.621,0
1594889102.414,-20.508,307.129,139.160,-36.621,0
1594889102.418,-20.020,367.188,108.398,-30.273,0
1594889102.422,-20.508,-65.430,-95.703,-35.645,0
1594889102.426,-21.973,-171.387,-116.211,-38.086,0
1594889102.419,-17.090,302.734,106.934,-33.691,0
1594889102.423,-20.020,340.820,94.727,-36.621,0
1594889102.427,-24.414,179.688,47.363,-40.039,0
1594889102.431,-27.832,8.301,-11.719,-41.992,0
1594889102.435,-37.109,147.949,70.312,-39.551,0
1594889102.439,-39.062,108.887,68.848,-34.668,0
1594889102.443,-36.133,102.539,92.773,-32.715,0
1594889102.446,-36.133,395.020,164.551,-34.668,0
1594889102.450,-37.598,-294.922,-160.156,-32.227,0
1594889102.454,-45.898,-941.895,-312.500,-31.738,0
1594889102.458,-52.246,-154.297,63.965,-36.621,0
1594889102.462,-52.734,420.410,161.621,-35.645,0
1594889102.476,-41.016,281.250,73.730,-37.598,0
1594889102.480,-16.602,136.230,84.473,-38.086,0
1594889102.484,-15.625,354.004,142.578,-29.785,0
1594889102.488,-27.344,351.562,75.195,-28.809,0
1594889102.492,-26.855,187.012,62.988,-42.969,0
1594889102.496,-25.391,-118.652,-12.207,-41.504,0
1594889102.500,-29.297,-370.117,-142.090,-41.504,0
1594889102.503,-28.320,-188.477,-137.207,-48.828,0
1594889102.507,-26.855,-41.992,-85.449,-44.434,0
1594889102.511,-23.926,299.316,146.484,-44.434,0
1594889102.515,-18.555,-107.910,-93.262,-39.551,0
1594889102.519,-23.438,-626.953,-354.980,-39.551,0
1594889102.513,-28.320,-45.410,-1.465,-43.457,0
1594889102.517,-21.484,206.543,121.094,-36.621,0
1594889102.521,-16.602,115.723,71.777,-34.668,0
1594889102.525,-20.020,-128.418,-68.848,-32.715,0
1594889102.529,-26.855,-68.359,-24.414,-28.809,0
1594889102.533,-29.785,-124.023,-23.438,-31.250,0
1594889102.537,-33.203,-188.477,-8.789,-37.598,0
1594889102.540,-37.109,143.066,78.613,-40.039,0
1594889102.544,-41.504,-455.078,-299.805,-43.945,0
1594889102.548,-42.480,-837.891,-415.039,-45.898,2
1594889102.552,-32.227,13.672,52.734,-47.363,0
1594889102.556,-26.855,440.430,148.438,-47.363,0
1594889102.569,-37.598,103.516,-63.477,-43.945,0
1594889102.573,-41.504,-379.395,-202.637,-38.574,0
1594889102.577,-44.434,-46.387,14.160,-32.227,0
1594889102.581,-44.434,276.367,93.750,-29.785,0
1594889102.585,-34.668,239.258,49.316,-36.133,0
1594889102.589,-37.109,-327.637,-298.828,-38.086,0
1594889102.593,-37.109,-685.059,-341.309,-37.109,0
1594889102.596,-32.227,105.469,143.066,-42.480,0
1594889102.600,-41.992,390.625,109.375,-41.504,0
1594889102.604,-48.340,274.414,58.594,-41.992,0
1594889102.608,-41.016,10.254,-36.621,-45.410,0
1594889102.612,-31.738,-30.273,6.836,-40.527,0
1594889102.608,-23.438,-17.578,5.859,-35.156,0
1594889102.612,-21.484,-196.777,-156.738,-41.016,0
1594889102.616,-25.879,69.336,12.695,-41.992,0
1594889102.620,-14.648,-237.305,-40.039,-35.156,0
1594889102.624,-8.301,-390.137,-110.840,-40.039,0
1594889102.628,-12.695,-265.137,-193.359,-40.527,0
1594889102.632,-16.602,-370.605,-268.555,-38.086,0
1594889102.635,-23.438,-76.660,-86.914,-33.691,0
1594889102.639,-27.832,-501.465,-279.785,-20.508,0
1594889102.643,-36.621,-856.445,-417.480,-9.766,0
1594889102.647,-48.340,-202.637,-68.848,-13.184,0
1594889102.651,-52.246,202.148,118.652,-17.090,0
1594889102.663,-43.945,207.520,77.637,-17.090,0
1594889102.667,-46.875,91.309,3.906,-21.484,0
1594889102.671,-55.176,264.648,71.777,-20.996,0
1594889102.675,-53.223,94.238,33.203,-21.484,0
1594889102.679,-50.781,64.453,83.496,-28.320,0
1594889102.683,-45.898,-136.719,-90.820,-27.832,0
1594889102.687,-41.504,-834.961,-435.059,-23.926,0
1594889102.690,-36.621,-430.176,-132.812,-30.273,0
1594889102.694,-32.227,236.328,150.391,-39.062,0
1594889102.698,-35.156,299.805,118.652,-41.016,0
1594889102.702,-30.273,-93.262,-77.637,-35.156,0
1594889102.706,-28.809,-204.102,-137.207,-35.156,0
1594889102.701,-31.738,3.418,-1.953,-37.598,0
1594889102.705,-37.598,73.242,90.820,-42.969,0
1594889102.709,-43.945,130.859,81.543,-44.922,0
1594889102.713,-42.480,-204.590,-147.949,-41.504,0
1594889102.717,-36.621,-180.176,-91.309,-40.527,0
1594889102.721,-31.738,-236.328,-138.184,-35.156,0
1594889102.725,-37.109,-634.277,-356.445,-35.156,0
1594889102.728,-43.945,-659.668,-307.617,-41.992,0
1594889102.732,-43.945,-814.941,-364.258,-38.574,0
1594889102.736,-42.480,-950.684,-346.680,-34.180,0
1594889102.740,-43.457,-349.121,-21.973,-39.062,0
1594889102.744,-46.387,157.227,106.934,-46.875,0
1594889102.757,-40.527,7.812,-74.707,-48.828,0
1594889102.761,-34.668,-122.559,-93.262,-48.828,0
1594889102.765,-34.180,151.367,101.562,-44.434,0
1594889102.769,-38.574,99.121,19.531,-40.039,0
1594889102.773,-38.086,118.164,37.598,-34.668,0
1594889102.777,-35.156,-199.707,-100.098,-27.344,0
1594889102.781,-38.574,-490.723,-154.297,-30.762,0
1594889102.784,-37.598,15.137,95.703,-35.645,0
1594889102.788,-38.086,71.777,36.621,-36.621,0
1594889102.792,-29.297,-87.402,-15.625,-32.715,0
1594889102.796,-20.508,-293.945,-137.695,-28.809,0
1594889102.800,-22.461,-289.551,-132.324,-30.762,0
1594889102.794,-27.832,189.941,111.328,-37.109,0
1594889102.798,-33.203,263.672,85.449,-33.203,0
1594889102.802,-31.738,270.996,99.121,-34.180,0
1594889102.806,-27.832,107.422,16.602,-40.039,0
1594889102.810,-26.367,-90.820,-69.824,-38.574,0
1594889102.814,-26.367,-312.988,-189.453,-38.086,0
1594889102.818,-24.902,-357.422,-209.473,-36.133,0
1594889102.821,-27.832,9.277,-45.410,-39.551,0
1594889102.825,-22.461,-574.219,-359.375,-36.621,0
1594889102.829,-20.996,-789.062,-377.441,-29.297,0
1594889102.833,-27.832,211.914,82.520,-38.086,0
1594889102.837,-30.273,352.051,133.301,-41.992,0
1594889102.851,-29.297,-51.270,-78.613,-40.527,0
1594889102.855,-33.691,-413.574,-286.133,-41.504,0
1594889102.859,-39.062,-31.250,-18.555,-44.922,0
1594889102.863,-39.062,503.906,208.008,-43.457,0
1594889102.867,-36.621,330.566,62.988,-41.016,0
1594889102.871,-39.551,-496.094,-373.535,-38.086,0
1594889102.875,-37.109,-621.582,-308.594,-34.668,0
1594889102.878,-26.855,184.082,138.672,-34.668,0
1594889102.882,-18.066,470.703,151.367,-38.574,0
1594889102.886,-21.973,273.926,55.664,-37.598,0
1594889102.890,-21.484,-157.715,-81.543,-30.762,0
1594889102.894,-16.602,-70.801,-18.555,-27.344,0
1594889102.888,-26.367,321.777,123.535,-28.809,0
1594889102.892,-37.109,110.352,-10.742,-22.461,0
1594889102.896,-45.410,-262.207,-238.770,-17.578,0
1594889102.900,-45.410,-549.805,-256.348,-17.090,0
1594889102.904,-37.598,-349.121,-22.949,-21.973,0
1594889102.908,-30.762,-215.820,-96.191,-33.203,0
1594889102.912,-29.297,-387.207,-266.602,-37.109,0
1594889102.915,-25.879,-19.531,-35.645,-38.574,0
1594889102.919,-18.066,-475.586,-202.148,-31.738,0
1594889102.923,-17.090,-842.773,-375.000,-28.320,0
1594889102.927,-21.973,-48.340,-5.859,-36.621,0
1594889102.931,-34.668,279.785,103.027,-34.180,0
1594889102.945,-42.480,153.320,70.312,-27.832,0
1594889102.949,-38.574,106.445,97.656,-32.715,0
1594889102.953,-40.527,208.984,75.195,-36.621,0
1594889102.957,-40.039,133.301,39.551,-38.086,0
1594889102.961,-33.203,129.395,55.176,-41.016,0
1594889102.965,-32.715,-229.980,-193.359,-38.574,0
1594889102.969,-47.363,-721.191,-379.883,-41.504,0
1594889102.972,-55.176,-322.266,-150.879,-41.992,0
1594889102.976,-53.711,110.352,0.000,-37.598,0
1594889102.980,-53.223,222.168,104.492,-36.621,0
1594889102.984,-47.363,-252.930,-139.160,-32.227,0
1594889102.988,-44.434,-697.754,-391.602,-29.297,0
1594889102.982,-42.969,-221.680,-123.047,-24.414,0
1594889102.986,-34.668,141.113,104.004,-17.578,0
1594889102.990,-29.297,152.344,36.133,-20.996,0
1594889102.994,-34.668,-172.852,-187.988,-25.391,0
1594889102.998,-38.086,-144.531,-156.738,-24.414,0
1594889103.002,-37.598,-199.219,-172.852,-26.855,0
1594889103.006,-40.527,-186.523,-72.266,-29.297,0
1594889103.009,-32.715,116.211,89.355,-34.668,0
1594889103.013,-22.949,-508.789,-335.938,-37.109,0
1594889103.017,-19.043,-946.777,-414.062,-34.668,0
1594889103.021,-12.207,-30.273,98.145,-38.574,0
1594889103.025,-20.996,349.121,119.141,-41.016,0
1594889103.038,-32.227,-82.520,-100.586,-38.574,0
1594889103.042,-31.250,-243.652,-105.469,-37.598,0
1594889103.046,-35.156,228.027,126.953,-43.457,0
1594889103.050,-46.387,252.441,68.359,-43.457,0
1594889103.054,-49.316,119.629,17.090,-41.992,0
1594889103.058,-43.457,-220.703,-255.859,-39.551,0
1594889103.062,-42.969,-751.465,-394.531,-34.180,0
1594889103.065,-46.387,-202.148,12.695,-47.852,0
1594889103.069,-58.594,175.781,54.688,-57.617,0
1594889103.073,-62.012,90.820,13.184,-44.434,0
1594889103.077,-50.293,32.227,21.484,-33.691,0
1594889103.081,-45.898,-204.590,-65.430,-36.621,0
1594889103.077,-52.246,-54.688,21.973,-43.457,0
1594889103.081,-62.012,186.523,100.586,-37.598,0
1594889103.085,-55.176,245.117,90.820,-33.203,0
1594889103.089,-47.363,-105.957,-64.453,-39.062,0
1594889103.093,-48.828,-178.711,-59.082,-41.016,0
1594889103.097,-46.387,-198.730,-186.523,-41.992,0
1594889103.101,-39.551,-349.121,-216.797,-39.062,0
1594889103.104,-34.668,215.820,178.711,-37.109,0
1594889103.108,-34.180,-315.430,-167.480,-34.180,0
1594889103.112,-37.109,-884.277,-476.562,-32.715,0
1594889103.116,-40.039,-175.293,-66.406,-49.316,0
1594889103.120,-31.250,288.086,126.465,-50.293,0
1594889103.132,-27.832,147.949,37.598,-47.363,0
1594889103.136,-23.438,-127.441,-108.887,-48.828,0
1594889103.140,-17.578,-148.438,-147.461,-42.480,0
1594889103.144,-16.602,-34.180,-32.715,-38.086,0
1594889103.148,-16.602,236.816,145.996,-43.945,0
1594889103.152,-15.625,-77.148,-87.402,-51.758,0
1594889103.156,-13.672,-819.336,-442.383,-42.969,0
1594889103.159,-9.766,-458.496,-152.344,-30.762,0
1594889103.163,-5.859,322.266,159.180,-32.715,0
1594889103.167,-14.160,467.285,141.113,-38.086,0
1594889103.171,-36.133,78.125,-26.855,-32.227,0
1594889103.175,-45.410,-48.828,-12.207,-30.762,0
1594889103.169,-37.598,255.371,126.953,-36.133,0
1594889103.173,-40.039,359.863,113.770,-36.133,0
1594889103.177,-45.410,175.293,5.371,-37.598,0
1594889103.181,-42.480,-184.082,-147.949,-43.945,0
1594889103.185,-32.715,-107.422,6.348,-37.598,0
1594889103.189,-31.738,-4.883,99.121,-36.621,0
1594889103.193,-41.016,-272.461,-115.723,-40.039,0
1594889103.196,-48.340,-267.578,-179.688,-38.574,0
1594889103.200,-42.480,-547.363,-269.531,-34.668,0
1594889103.204,-41.016,-993.164,-374.512,-30.762,0
1594889103.208,-51.270,-352.539,-74.219,-41.992,0
1594889103.212,-49.805,240.723,82.520,-49.805,0
1594889103.226,-40.039,222.656,14.160,-40.527,0
1594889103.230,-33.203,205.566,67.871,-34.180,0
1594889103.234,-36.133,220.703,91.309,-41.016,0
1594889103.238,-42.480,123.535,6.348,-43.945,0
1594889103.242,-43.945,233.398,83.496,-41.016,0
1594889103.246,-37.109,-57.617,-32.715,-39.551,0
1594889103.250,-34.668,-557.129,-240.234,-35.645,0
1594889103.253,-40.527,-343.262,-220.703,-31.250,0
1594889103.257,-35.645,-232.422,-234.375,-32.227,0
1594889103.261,-25.391,106.934,51.270,-37.598,0
1594889103.265,-21.484,-53.711,-71.289,-38.574,0
1594889103.269,-24.414,-423.340,-319.824,-40.527,0
1594889103.263,-27.832,-103.516,-132.324,-41.992,0
1594889103.267,-25.391,161.133,71.777,-34.668,0
1594889103.271,-17.578,269.531,129.395,-31.738,0
1594889103.275,-18.066,-109.863,-65.918,-47.852,0
1594889103.279,-22.949,-218.750,-93.750,-59.570,0
1594889103.283,-19.531,-344.238,-231.445,-52.734,0
1594889103.287,-20.996,-309.570,-191.895,-52.246,0
1594889103.290,-33.691,47.852,5.859,-47.852,0
1594889103.294,-47.852,-589.844,-402.344,-33.691,0
1594889103.298,-56.152,-811.523,-438.965,-33.203,0
1594889103.302,-55.176,-83.008,13.672,-33.691,0
1594889103.306,-56.152,163.574,96.680,-30.273,0
1594889103.319,-63.965,125.977,48.340,-27.344,0
1594889103.323,-59.082,-108.887,-68.359,-24.902,0
1594889103.327,-47.363,94.727,42.480,-29.297,0
1594889103.331,-41.504,230.469,77.637,-33.203,0
1594889103.335,-36.133,220.703,65.918,-30.273,0
1594889103.339,-32.715,-95.215,-91.797,-24.902,0
1594889103.343,-28.320,-583.496,-280.273,-24.902,0
1594889103.346,-17.578,-55.176,-3.906,-33.691,0
1594889103.350,-20.020,296.875,105.469,-42.969,0
1594889103.354,-27.832,331.543,109.863,-44.922,0
1594889103.358,-28.809,209.961,64.941,-41.016,0
1594889103.362,-28.809,155.762,87.402,-41.016,0
1594889103.358,-31.738,298.828,120.117,-39.551,1
1594889103.362,-34.180,-63.965,-97.168,-36.621,0
1594889103.366,-30.273,-245.117,-198.242,-29.785,0
1594889103.370,-25.879,-465.820,-209.961,-28.809,0
1594889103.374,-24.414,-228.027,-17.578,-36.133,0
1594889103.378,-26.855,-173.828,-137.207,-33.691,0
1594889103.382,-28.320,-498.047,-296.875,-36.133,0
1594889103.385,-21.973,-28.320,5.371,-40.039,0
1594889103.389,-22.461,-494.629,-270.508,-35.156,0
1594889103.393,-31.250,-856.445,-375.488,-34.180,0
1594889103.397,-37.109,-158.203,-23.438,-36.621,0
1594889103.401,-37.109,298.340,110.352,-41.016,0
1594889103.413,-36.133,290.527,73.730,-44.434,0
1594889103.417,-36.133,-19.531,-32.715,-44.434,0
1594889103.421,-37.109,55.664,37.109,-45.898,0
1594889103.425,-33.691,90.820,41.016,-42.969,0
1594889103.429,-28.809,-19.531,10.742,-35.156,0
1594889103.433,-27.832,-330.078,-238.281,-32.227,0
1594889103.437,-32.715,-864.746,-495.605,-30.273,0
1594889103.440,-32.715,-466.797,-146.973,-29.785,0
1594889103.444,-22.461,182.617,125.000,-32.715,0
1594889103.448,-22.461,216.797,39.062,-30.273,0
1594889103.452,-22.461,-22.461,-79.102,-25.391,0
1594889103.456,-14.160,-90.332,-50.293,-29.297,0
1594889103.451,-10.254,245.117,144.531,-27.832,0
1594889103.455,-9.277,271.973,124.023,-24.902,0
1594889103.459,-6.836,97.168,-18.066,-23.926,0
1594889103.463,-6.836,-214.355,-208.984,-24.902,0
1594889103.467,-9.277,-93.750,-97.656,-27.832,0
1594889103.471,-5.371,-36.621,13.672,-33.203,0
1594889103.475,-2.441,-377.930,-166.504,-35.156,0
1594889103.478,-14.648,-358.887,-208.008,-37.109,0
1594889103.482,-14.160,-668.457,-362.793,-29.785,0
1594889103.486,-9.277,-981.445,-369.629,-23.926,0
1594889103.490,-14.648,-90.332,86.914,-33.691,0
1594889103.494,-13.672,473.633,166.992,-37.598,0
1594889103.507,-12.695,88.379,-6.348,-36.133,0
1594889103.511,-18.066,-53.223,-16.113,-34.668,0
1594889103.515,-23.438,314.453,120.117,-30.273,0
1594889103.519,-32.715,319.824,89.844,-34.180,0
1594889103.523,-36.621,199.707,101.074,-34.668,0
1594889103.527,-32.227,-187.500,-59.570,-32.715,0
1594889103.531,-35.156,-576.660,-260.254,-38.086,0
1594889103.534,-45.898,-39.062,17.578,-41.504,0
1594889103.538,-61.523,149.414,51.270,-41.504,0
1594889103.542,-59.570,65.430,30.762,-43.457,0
1594889103.546,-45.898,-291.992,-97.168,-43.457,0
1594889103.550,-38.574,-491.211,-245.605,-32.715,0
1594889103.545,-39.062,14.648,-37.109,-32.227,0
1594889103.549,-37.109,126.465,22.949,-33.203,0
1594889103.553,-28.809,163.086,82.031,-34.180,0
1594889103.557,-29.297,48.340,32.715,-30.273,0
1594889103.561,-33.691,-23.438,-41.992,-21.973,0
1594889103.565,-29.297,-191.406,-154.297,-25.391,0
1594889103.569,-19.531,-168.457,-48.828,-24.902,0
1594889103.572,-18.555,115.234,76.660,-25.391,0
1594889103.576,-27.344,-541.504,-360.840,-24.414,0
1594889103.580,-27.344,-843.750,-442.383,-22.949,0
1594889103.584,-16.602,-69.824,10.742,-28.320,0
1594889103.588,-20.508,315.430,120.605,-32.715,0
1594889103.602,-27.344,60.059,-51.758,-35.645,0
1594889103.606,-35.645,-227.539,-162.109,-34.668,0
1594889103.610,-47.363,63.965,27.832,-38.086,0
1594889103.614,-42.969,283.203,129.395,-41.992,0
1594889103.618,-38.086,299.805,96.680,-43.457,0
1594889103.622,-34.668,-222.656,-230.469,-35.156,0
1594889103.626,-25.879,-733.887,-374.023,-31.738,0
1594889103.629,-20.508,-83.008,56.152,-38.086,0
1594889103.633,-21.973,355.957,125.000,-42.480,0
1594889103.637,-30.273,146.484,-35.645,-41.504,0
1594889103.641,-35.156,-263.672,-196.289,-43.457,0
1594889103.645,-28.809,-127.930,-27.344,-37.109,0
1594889103.638,-29.297,343.262,179.199,-34.180,0
1594889103.642,-40.527,360.840,116.211,-38.086,0
1594889103.646,-35.645,111.328,29.785,-36.133,0
1594889103.650,-28.809,-256.348,-123.535,-38.574,0
1594889103.654,-26.855,-173.828,-41.992,-38.086,0
1594889103.658,-25.391,-187.012,-80.078,-41.016,0
1594889103.662,-21.973,-137.695,-85.938,-46.875,0
1594889103.665,-19.043,145.020,58.105,-45.410,0
1594889103.669,-26.367,-489.746,-264.648,-38.086,0
1594889103.673,-28.809,-971.680,-371.094,-34.180,0
1594889103.677,-34.180,-350.098,-83.984,-39.062,0
1594889103.681,-35.156,144.043,30.273,-43.457,0
1594889103.694,-23.926,251.953,96.191,-44.434,0
1594889103.698,-17.090,155.762,81.543,-40.039,0
1594889103.702,-23.438,146.973,39.062,-41.504,0
1594889103.706,-37.109,38.574,8.301,-35.156,0
1594889103.710,-31.250,134.766,102.051,-30.273,0
1594889103.714,-20.996,20.996,25.391,-29.785,0
1594889103.718,-26.855,-548.340,-231.445,-26.855,0
1594889103.721,-27.344,-365.723,-149.414,-33.203,0
1594889103.725,-20.508,53.711,36.621,-39.551,0
1594889103.729,-25.391,246.582,152.344,-39.062,0
1594889103.733,-30.273,-175.293,-129.883,-41.504,0
1594889103.737,-30.762,-440.918,-243.164,-38.574,0
1594889103.732,-30.762,235.840,128.418,-31.738,0
1594889103.736,-27.344,356.445,135.742,-37.109,0
1594889103.740,-37.109,194.824,64.453,-46.875,0
1594889103.744,-41.504,-150.879,-104.980,-45.410,0
1594889103.748,-39.551,-153.809,-46.387,-38.574,0
1594889103.752,-39.551,-145.020,-11.230,-41.992,0
1594889103.756,-39.551,-70.312,31.738,-41.016,0
1594889103.759,-39.551,78.613,34.668,-36.133,0
1594889103.763,-39.551,-665.039,-440.918,-36.133,0
1594889103.767,-30.762,-966.309,-437.500,-33.203,0
1594889103.771,-35.156,-62.012,96.680,-44.922,0
1594889103.775,-41.992,254.395,93.262,-44.922,0
1594889103.788,-35.156,-87.891,-49.316,-33.691,0
1594889103.792,-32.227,-222.656,-68.848,-39.551,0
1594889103.796,-26.367,13.672,23.926,-38.086,0
1594889103.800,-21.973,153.320,67.871,-34.668,0
1594889103.804,-15.137,8.301,-77.637,-30.273,0
1594889103.808,-17.578,-360.840,-333.984,-31.738,0
1594889103.812,-20.020,-679.688,-367.676,-30.762,0
1594889103.815,-19.043,-109.863,33.203,-31.738,0
1594889103.819,-26.855,129.395,40.039,-39.551,0
1594889103.823,-25.879,14.160,-18.555,-39.062,0
1594889103.827,-20.020,-271.973,-104.004,-36.621,0
1594889103.831,-23.926,-363.281,-139.160,-38.086,0
1594889103.827,-29.297,-234.863,-126.953,-43.457,0
1594889103.831,-29.785,-185.547,-172.852,-42.969,0
1594889103.835,-24.414,116.211,7.812,-39.062,0
1594889103.839,-19.043,-255.859,-74.707,-36.621,0
1594889103.843,-26.367,-364.746,-163.574,-39.551,0
1594889103.847,-41.992,-272.949,-208.008,-39.551,0
1594889103.851,-41.016,-306.641,-137.207,-41.504,0
1594889103.854,-28.809,258.789,154.297,-40.527,0
1594889103.858,-27.344,-305.664,-168.457,-36.621,0
1594889103.862,-34.180,-912.598,-424.805,-35.156,0
1594889103.866,-38.086,-202.637,-28.809,-34.180,0
1594889103.870,-27.344,237.305,144.043,-30.762,0
1594889103.882,-24.902,152.832,46.387,-29.785,0
1594889103.886,-34.180,-114.258,-128.418,-37.598,0
1594889103.890,-27.344,-116.699,-176.758,-37.598,0
1594889103.894,-22.949,-6.348,-4.395,-30.273,0
1594889103.898,-26.855,288.086,160.645,-32.715,0
1594889103.902,-34.180,112.305,-18.555,-38.574,0
1594889103.906,-50.293,-745.117,-358.887,-35.156,0
1594889103.909,-58.105,-450.195,-100.586,-34.180,0
1594889103.913,-54.199,357.422,183.105,-37.598,0
1594889103.917,-55.664,458.984,124.023,-37.109,0
1594889103.921,-63.965,17.090,-85.449,-37.598,0
1594889103.925,-58.594,-101.074,-88.867,-37.109,0
1594889103.919,-54.688,201.660,115.234,-44.434,0
1594889103.923,-57.129,69.824,36.621,-55.176,0
1594889103.927,-60.547,-145.996,-135.742,-60.547,0
1594889103.931,-55.664,-224.121,-163.086,-62.500,0
1594889103.935,-50.781,-119.141,-3.418,-59.570,0
1594889103.939,-50.293,-261.719,-95.703,-50.781,0
1594889103.943,-55.176,-540.527,-280.762,-49.805,0
1594889103.946,-56.641,-415.527,-209.961,-44.922,0
1594889103.950,-55.664,-614.746,-315.430,-26.855,0
1594889103.954,-58.105,-1000.000,-393.555,-23.438,0
1594889103.958,-65.430,-411.133,-94.238,-33.203,0
1594889103.962,-80.566,209.473,78.613,-36.133,0
1594889103.976,-73.242,116.211,33.203,-29.297,0
1594889103.980,-62.988,-12.207,36.621,-31.738,0
1594889103.984,-60.059,182.129,97.168,-34.180,0
1594889103.988,-56.641,71.289,-3.418,-30.762,0
1594889103.992,-53.711,174.316,83.496,-32.715,0
1594889103.996,-49.316,-16.113,-2.441,-36.133,0
1594889104.000,-45.410,-583.984,-251.953,-28.809,0
1594889104.003,-41.016,-317.871,-125.977,-27.344,0
1594889104.007,-48.340,-134.766,-107.910,-31.738,0
1594889104.011,-60.059,-11.230,14.648,-38.086,0
1594889104.015,-58.105,-105.469,-71.289,-33.203,0
1594889104.019,-56.152,-382.324,-277.832,-26.855,0
1594889104.013,-62.500,55.664,46.387,-38.086,0
1594889104.017,-59.570,352.539,148.926,-41.504,0
1594889104.021,-58.105,423.828,109.375,-35.156,0
1594889104.025,-68.359,5.371,-74.707,-41.016,0
1594889104.029,-72.754,-57.617,-53.711,-46.875,0
1594889104.033,-64.453,-29.785,10.742,-41.504,0
1594889104.037,-55.664,-166.504,19.043,-41.992,0
1594889104.040,-46.875,64.453,68.848,-45.898,0
1594889104.044,-41.992,-553.711,-389.648,-42.480,0
1594889104.048,-48.828,-835.938,-432.129,-34.668,0
1594889104.052,-40.527,54.688,82.520,-36.621,0
1594889104.056,-24.902,256.836,111.816,-36.621,0
1594889104.069,-29.297,-106.934,-50.293,-27.832,0
1594889104.073,-39.551,-331.055,-143.066,-30.273,0
1594889104.077,-33.691,120.117,72.266,-37.598,0
1594889104.081,-31.250,470.215,126.465,-43.457,0
1594889104.085,-40.527,375.488,85.938,-44.922,0
1594889104.089,-48.340,-209.961,-193.848,-37.109,0
1594889104.093,-52.734,-727.539,-391.113,-31.738,0
1594889104.096,-46.387,34.668,87.891,-35.645,0
1594889104.100,-40.527,263.672,89.355,-38.574,0
1594889104.104,-44.434,60.059,20.508,-37.109,0
1594889104.108,-43.945,-121.582,-59.082,-35.156,0
1594889104.112,-40.527,-201.172,-108.398,-36.621,0
1594889104.107,-47.852,135.742,83.496,-36.621,0
1594889104.111,-61.523,-53.223,-83.496,-36.621,0
1594889104.115,-60.547,-277.344,-244.629,-38.086,0
1594889104.119,-57.129,-464.844,-213.379,-37.598,0
1594889104.123,-54.688,-282.227,-80.078,-40.527,0
1594889104.127,-57.129,-226.562,-201.660,-40.039,0
1594889104.131,-59.570,-337.402,-269.043,-34.668,0
1594889104.134,-51.270,107.910,31.738,-37.598,0
1594889104.138,-50.293,-390.625,-183.594,-41.016,0
1594889104.142,-50.293,-868.164,-396.973,-33.691,0
1594889104.146,-44.434,-161.133,-28.320,-29.297,0
1594889104.150,-39.551,294.922,165.039,-34.668,0
1594889104.163,-42.480,347.168,118.164,-36.133,0
1594889104.167,-43.945,9.766,-81.055,-36.133,0
1594889104.171,-39.551,-16.113,-62.500,-38.574,0
1594889104.175,-37.598,182.617,69.336,-33.691,0
1594889104.179,-34.180,215.820,118.164,-33.203,0
1594889104.183,-36.133,-155.273,-78.613,-31.738,0
1594889104.187,-42.480,-680.664,-298.340,-24.414,0
1594889104.190,-42.480,-295.410,-55.176,-27.832,0
1594889104.194,-32.715,231.934,138.184,-31.250,0
1594889104.198,-36.133,332.520,134.766,-39.062,0
1594889104.202,-54.199,-245.605,-192.871,-39.062,0
1594889104.206,-54.199,-686.523,-370.117,-32.227,0
1594889104.201,-48.828,-33.203,11.230,-38.574,0
1594889104.205,-43.945,267.090,113.281,-41.992,0
1594889104.209,-50.781,17.578,-84.473,-37.109,0
1594889104.213,-76.172,-312.012,-239.258,-35.156,0
1594889104.217,-76.172,-94.238,-52.734,-31.738,0
1594889104.221,-64.941,-122.070,-78.125,-34.668,0
1594889104.225,-60.547,-192.383,-52.734,-42.480,0
1594889104.228,-55.176,111.328,28.320,-40.527,0
1594889104.232,-49.316,-461.426,-288.574,-31.738,0
1594889104.236,-36.133,-897.461,-321.289,-27.832,0
1594889104.240,-31.250,-42.480,78.613,-35.156,0
1594889104.244,-44.434,300.781,90.820,-33.691,0
1594889104.257,-49.316,56.641,-10.254,-29.297,1
1594889104.261,-34.668,-101.074,-17.090,-30.273,0
1594889104.265,-30.762,148.438,92.285,-33.203,0
1594889104.269,-41.016,319.336,120.117,-32.227,0
1594889104.273,-36.133,300.293,103.027,-29.785,0
1594889104.277,-30.273,-81.055,-47.852,-31.738,0
1594889104.281,-35.645,-291.016,-31.738,-34.668,0
1594889104.284,-38.086,59.570,71.777,-35.645,0
1594889104.288,-39.551,-121.094,-201.660,-35.645,0
1594889104.292,-38.086,-67.871,-88.867,-34.180,0
1594889104.296,-36.133,-428.711,-213.379,-28.809,0
1594889104.300,-38.086,-799.805,-442.383,-24.902,0
1594889104.296,-36.133,-361.816,-258.789,-21.484,0
1594889104.300,-40.527,-222.656,-221.191,-27.344,0
1594889104.304,-33.691,-70.312,-47.852,-29.785,0
1594889104.308,-26.855,-296.875,-100.586,-24.414,0
1594889104.312,-40.527,-276.367,-97.168,-30.762,0
1594889104.316,-46.387,5.859,73.730,-36.133,0
1594889104.320,-40.527,-128.906,8.301,-35.156,0
1594889104.323,-43.457,-176.758,-79.590,-43.945,0
1594889104.327,-47.852,-653.320,-393.555,-47.363,0
1594889104.331,-43.945,-944.336,-498.047,-39.062,0
1594889104.335,-41.504,-266.602,-78.125,-41.016,0
1594889104.339,-33.203,219.727,116.211,-41.504,0
1594889104.352,-28.320,-103.516,-118.652,-38.574,0
1594889104.356,-39.551,-573.730,-345.703,-42.969,0
1594889104.360,-43.457,-261.230,-100.098,-44.434,0
1594889104.364,-41.504,149.902,114.258,-42.969,0
1594889104.368,-46.387,187.988,104.004,-37.109,0
1594889104.372,-50.781,-218.262,-165.527,-36.133,0
1594889104.376,-54.688,-922.852,-472.656,-35.645,0
1594889104.379,-44.434,-384.277,-67.383,-31.250,0
1594889104.383,-33.691,401.367,162.109,-34.180,0
1594889104.387,-39.062,304.688,51.270,-39.062,0
1594889104.391,-35.645,-70.801,-61.523,-39.062,0
1594889104.395,-23.438,-160.156,-65.430,-39.551,0
1594889104.388,-17.578,247.559,123.535,-42.480,0
1594889104.392,-18.066,275.879,105.469,-42.969,0
1594889104.396,-19.531,76.172,21.973,-42.969,0
1594889104.400,-17.090,-194.824,-115.723,-40.039,0
1594889104.404,-13.184,-270.020,-139.160,-39.551,0
1594889104.408,-11.719,-306.641,-182.617,-37.598,0
1594889104.412,-18.555,-436.035,-255.859,-41.992,0
1594889104.415,-22.461,-0.488,5.859,-37.109,0
1594889104.419,-13.672,-353.027,-183.105,-26.367,0
1594889104.423,-13.672,-1000.000,-423.340,-27.344,0
1594889104.427,-26.367,-179.199,19.043,-37.109,0
1594889104.431,-36.133,352.539,126.465,-38.574,0
1594889104.444,-30.762,146.973,56.152,-32.227,0
1594889104.448,-22.461,-5.371,27.344,-27.832,0
1594889104.452,-25.879,10.742,19.531,-29.297,0
1594889104.456,-33.691,103.516,61.035,-31.738,0
1594889104.460,-35.156,95.215,37.598,-35.645,0
1594889104.464,-26.855,-300.293,-229.492,-36.133,0
1594889104.468,-32.227,-825.195,-416.016,-32.715,0
1594889104.471,-49.316,-560.547,-205.078,-39.062,0
1594889104.475,-48.340,-84.473,-27.832,-39.551,0
1594889104.479,-40.527,239.258,141.113,-42.969,0
1594889104.483,-41.016,-142.578,-109.375,-39.062,0
1594889104.487,-47.852,-423.340,-260.742,-42.480,0
1594889104.482,-51.758,171.875,89.844,-49.316,0
1594889104.486,-44.434,362.793,147.949,-41.992,0
1594889104.490,-37.598,288.086,56.641,-48.828,0
1594889104.494,-43.945,-125.977,-182.617,-61.523,0
1594889104.498,-40.527,-152.344,-110.840,-56.152,0
1594889104.502,-28.809,-69.824,11.230,-45.898,0
1594889104.506,-36.621,-168.945,15.625,-46.875,0
1594889104.509,-49.805,46.875,45.898,-45.898,0
1594889104.513,-51.758,-536.133,-329.102,-38.574,0
1594889104.517,-39.062,-884.766,-389.160,-28.809,0
1594889104.521,-35.645,-339.844,-81.055,-33.203,0
1594889104.525,-44.922,-50.781,12.695,-37.109,0
1594889104.538,-52.246,143.066,49.805,-34.668,0
1594889104.542,-50.781,-48.340,-46.387,-36.133,0
1594889104.546,-36.133,99.609,51.270,-45.898,0
1594889104.550,-29.297,367.676,151.855,-48.340,0
1594889104.554,-36.133,310.059,73.242,-40.039,0
1594889104.558,-33.691,-57.129,-80.566,-33.691,0
1594889104.562,-26.367,-500.488,-202.148,-30.273,0
1594889104.565,-22.949,-122.070,3.906,-34.668,0
1594889104.569,-22.461,257.812,108.887,-31.250,0
1594889104.573,-22.949,230.469,73.730,-31.250,0
1594889104.577,-20.020,40.527,22.949,-34.180,0
1594889104.581,-20.996,122.559,52.734,-34.668,0
1594889104.577,-26.855,170.410,38.086,-41.504,0
1594889104.581,-28.320,-151.367,-176.758,-41.504,0
1594889104.585,-21.484,14.648,-63.965,-40.527,0
1594889104.589,-8.301,-279.297,-107.422,-41.992,0
1594889104.593,-9.277,-382.812,-106.445,-43.457,0
1594889104.597,-14.160,-137.695,-47.363,-50.293,0
1594889104.601,-16.602,-255.371,-165.527,-53.223,0
1594889104.604,-9.766,178.223,100.098,-49.805,0
1594889104.608,-10.254,-316.406,-178.223,-41.992,0
1594889104.612,-33.203,-948.242,-455.078,-36.621,0
1594889104.616,-44.434,-197.754,-38.086,-35.645,0
1594889104.620,-42.969,276.367,127.441,-28.320,0
1594889104.632,-49.805,110.352,7.324,-24.902,0
1594889104.636,-62.012,-106.445,-57.617,-22.949,0
1594889104.640,-61.523,126.953,75.684,-24.902,0
1594889104.644,-56.641,187.988,86.426,-25.879,0
1594889104.648,-48.340,118.652,97.168,-23.438,0
1594889104.652,-56.152,-102.051,-98.145,-24.902,0
1594889104.656,-66.406,-833.984,-479.980,-23.926,0
1594889104.659,-51.270,-469.238,-161.621,-26.855,0
1594889104.663,-43.945,267.578,157.715,-34.668,0
1594889104.667,-41.504,384.766,137.207,-39.062,0
1594889104.671,-33.691,11.719,-79.590,-31.738,0
1594889104.675,-35.645,-125.000,-65.430,-29.297,0
1594889104.669,-40.527,180.664,111.328,-39.551,0
1594889104.673,-40.039,137.695,64.941,-41.504,0
1594889104.677,-29.297,33.691,4.883,-39.062,0
1594889104.681,-20.508,-203.613,-124.512,-40.527,0
1594889104.685,-18.066,134.766,80.566,-40.527,0
1594889104.689,-17.578,175.293,116.211,-35.645,0
1594889104.693,-18.066,-112.793,-9.277,-35.156,0
1594889104.696,-13.184,161.621,98.633,-46.387,0
1594889104.700,-9.766,-176.270,-99.121,-46.387,0
1594889104.704,-6.836,-854.980,-344.727,-36.133,0
1594889104.708,-6.348,-337.402,-59.082,-34.668,0
1594889104.712,-11.719,353.516,138.184,-35.645,0
1594889104.726,-25.391,357.422,119.141,-41.504,0
1594889104.730,-29.297,269.043,141.113,-39.551,0
1594889104.734,-21.973,382.812,158.203,-38.086,0
1594889104.738,-24.902,171.875,32.715,-35.156,0
1594889104.742,-30.273,132.324,55.664,-35.156,0
1594889104.746,-38.574,-27.832,26.855,-45.410,0
1594889104.750,-57.617,-498.047,-184.082,-41.992,0
1594889104.753,-65.430,-132.324,-33.203,-34.180,0
1594889104.757,-57.617,194.336,62.988,-36.621,0
1594889104.761,-51.270,105.469,75.684,-35.156,0
1594889104.765,-55.664,-236.816,-113.281,-29.785,0
1594889104.769,-48.340,-263.184,-165.039,-24.902,0
1594889104.763,-32.227,179.688,101.074,-22.949,0
1594889104.767,-27.832,260.254,105.957,-22.461,0
1594889104.771,-16.602,239.258,89.355,-31.738,0
1594889104.775,-19.531,44.922,-23.438,-41.992,0
1594889104.779,-20.996,-52.734,-67.871,-34.668,0
1594889104.783,-8.789,-207.031,-187.988,-28.320,0
1594889104.787,-13.672,-205.566,-141.602,-25.879,0
1594889104.790,-29.785,92.285,12.695,-27.344,0
1594889104.794,-36.621,-543.945,-407.715,-35.156,0
1594889104.798,-33.203,-913.086,-455.566,-37.598,0
1594889104.802,-17.578,-117.188,52.246,-40.039,0
1594889104.806,-13.672,175.781,66.895,-40.527,0
1594889104.820,-26.855,-200.684,-207.031,-33.203,0
1594889104.824,-29.297,-481.445,-232.910,-27.344,0
1594889104.828,-25.879,-9.766,41.016,-28.809,0
1594889104.832,-30.273,413.574,136.230,-35.645,0
1594889104.836,-34.668,298.340,94.727,-41.016,0
1594889104.840,-35.156,-283.691,-192.871,-40.039,0
1594889104.844,-35.645,-664.062,-349.121,-33.691,0
1594889104.847,-26.855,-87.891,14.160,-28.320,0
1594889104.851,-27.832,235.840,100.098,-27.344,0
1594889104.855,-38.574,101.074,5.371,-25.879,0
1594889104.859,-39.062,-147.461,-75.195,-31.250,0
1594889104.863,-32.227,62.500,50.293,-33.691,0
1594889104.857,-27.832,471.191,190.430,-36.621,0
1594889104.861,-31.738,213.379,-23.438,-41.504,0
1594889104.865,-24.902,26.367,-57.129,-41.992,0
1594889104.869,-16.113,-92.773,2.930,-40.527,0
1594889104.873,-17.578,23.438,12.207,-40.527,0
1594889104.877,-16.602,-69.824,-145.020,-39.551,0
1594889104.881,-16.113,-224.609,-187.988,-31.250,0
1594889104.884,-27.344,58.594,48.828,-32.715,0
1594889104.888,-29.297,-565.430,-296.387,-28.320,0
1594889104.892,-27.832,-969.238,-416.992,-26.855,0
1594889104.896,-38.086,-181.641,59.570,-35.645,0
1594889104.900,-37.109,334.961,163.086,-37.598,0
1594889104.913,-27.832,169.922,100.586,-43.945,0
1594889104.917,-28.320,-171.875,-60.059,-45.410,0
1594889104.921,-38.086,-123.047,-123.047,-41.992,0
1594889104.925,-38.574,96.191,58.594,-36.621,0
1594889104.929,-41.504,306.152,183.105,-29.785,0
1594889104.933,-56.641,-39.551,-37.109,-24.902,0
1594889104.937,-59.082,-831.543,-401.855,-20.508,0
1594889104.940,-55.176,-444.824,-117.188,-19.531,0
1594889104.944,-52.246,200.195,131.348,-26.367,0
1594889104.948,-42.480,412.109,159.668,-38.574,0
1594889104.952,-47.852,-177.734,-188.477,-39.062,0
1594889104.956,-49.316,-673.340,-396.484,-37.109,0
1594889104.951,-35.645,54.688,53.711,-36.621,0
1594889104.955,-30.762,519.531,211.914,-35.156,0
1594889104.959,-33.691,319.336,45.898,-38.086,0
1594889104.963,-34.180,-209.473,-134.277,-39.551,0
1594889104.967,-27.832,-103.516,-18.066,-41.992,0
1594889104.971,-23.438,-125.488,-96.191,-49.805,0
1594889104.975,-35.156,-350.586,-219.727,-46.875,0
1594889104.978,-40.039,-263.184,-202.637,-36.621,0
1594889104.982,-35.645,-668.945,-424.316,-35.645,0
1594889104.986,-32.227,-964.844,-400.391,-38.574,0
1594889104.990,-23.438,-148.438,44.434,-38.086,0
1594889104.994,-20.020,371.094,114.258,-38.086,0
1594889105.007,-21.973,107.422,14.648,-34.180,0
1594889105.011,-29.297,-166.992,-25.391,-36.621,0
1594889105.015,-38.086,135.742,104.980,-47.363,0
1594889105.019,-50.293,207.520,68.848,-47.852,0
1594889105.023,-58.105,118.164,42.480,-44.434,0
1594889105.027,-51.270,-154.785,-65.430,-44.434,0
1594889105.031,-40.039,-661.133,-256.836,-49.316,0
1594889105.034,-44.922,-240.234,-7.324,-55.176,0
1594889105.038,-51.270,130.859,73.242,-53.223,0
1594889105.042,-43.457,81.543,25.391,-45.898,0
1594889105.046,-34.668,-46.875,-11.230,-42.969,0
1594889105.050,-35.645,-289.062,-194.824,-40.039,0
1594889105.046,-38.574,-213.379,-174.316,-30.762,0
1594889105.050,-34.180,73.730,60.547,-28.809,0
1594889105.054,-27.344,211.914,122.559,-33.203,0
1594889105.058,-25.879,-349.121,-145.020,-32.227,0
1594889105.062,-30.273,-511.230,-194.824,-34.668,0
1594889105.066,-33.203,-263.184,-133.301,-39.062,0
1594889105.070,-28.809,-231.934,-104.980,-39.551,0
1594889105.073,-24.414,105.957,104.004,-40.527,0
1594889105.077,-17.578,-477.051,-272.949,-37.598,0
1594889105.081,-19.531,-878.906,-438.965,-39.551,0
1594889105.085,-23.926,-38.574,25.879,-42.969,0
1594889105.089,-21.973,369.141,136.719,-44.434,2
1594889105.101,-20.508,30.273,-11.230,-45.410,0
1594889105.105,-20.996,-199.707,-110.840,-36.621,0
1594889105.109,-24.902,-95.215,-5.859,-37.109,0
1594889105.113,-28.809,163.574,125.000,-40.527,0
1594889105.117,-27.832,263.672,107.910,-36.621,0
1594889105.121,-34.668,-248.047,-201.660,-38.086,0
1594889105.125,-43.457,-923.828,-499.023,-33.203,0
1594889105.128,-43.457,-434.082,-140.137,-30.762,0
1594889105.132,-45.898,380.859,141.602,-39.551,0
1594889105.136,-49.805,239.746,18.555,-43.457,0
1594889105.140,-52.246,-77.637,-45.898,-37.598,0
1594889105.144,-42.480,-92.773,10.742,-31.738,0
1594889105.139,-37.598,179.688,111.816,-34.180,0
1594889105.143,-36.621,320.312,111.816,-38.574,0
1594889105.147,-40.039,242.676,50.293,-39.551,0
1594889105.151,-44.434,-10.742,-37.109,-35.156,0
1594889105.155,-40.039,-3.418,51.758,-29.297,0
1594889105.159,-36.621,-7.324,63.965,-34.180,0
1594889105.163,-45.410,-134.766,-37.109,-37.598,0
1594889105.166,-56.641,-23.926,33.691,-35.645,0
1594889105.170,-52.734,-423.340,-126.953,-30.762,0
