timestamps,TP9,AF7,AF8,TP10,Marker0
1594888271.643,-95.215,-33.691,-267.090,-170.410,0
1594888271.647,-81.055,-29.297,-330.078,-169.434,0
1594888271.651,-63.477,-24.902,-337.402,-163.086,0
1594888271.655,-64.941,-21.484,-193.359,-160.645,0
1594888271.659,-79.102,-21.484,-285.645,-151.855,0
1594888271.663,-85.938,-25.391,-273.438,-147.461,0
1594888271.667,-81.055,-29.785,-354.492,-146.973,0
1594888271.670,-82.520,-31.250,-587.891,-149.414,0
1594888271.674,-100.098,-31.250,-419.434,-148.926,0
1594888271.678,-103.027,-31.250,-206.543,-140.137,0
1594888271.682,-84.473,-35.645,-135.254,-138.672,0
1594888271.686,-83.008,-33.203,-250.000,-125.000,0
1594888271.681,-97.656,-27.344,-348.145,-111.328,0
1594888271.685,-90.332,-21.484,-281.738,-101.562,0
1594888271.689,-74.219,-21.973,-204.102,-96.191,0
1594888271.693,-70.801,-25.879,-95.215,-99.121,0
1594888271.697,-81.543,-25.391,-213.379,-101.562,0
1594888271.701,-83.984,-23.926,-345.703,-103.516,0
1594888271.705,-70.312,-24.414,-276.855,-100.586,0
1594888271.708,-75.195,-27.344,-207.520,-99.609,0
1594888271.712,-90.332,-27.344,-249.023,-107.910,0
1594888271.716,-103.516,-26.855,-367.676,-109.863,0
1594888271.720,-106.934,-30.273,-309.082,-109.863,0
1594888271.724,-93.262,-30.762,-110.352,-107.910,0
1594888271.737,-86.426,-26.855,-31.250,-99.609,0
1594888271.741,-98.633,-28.809,-357.422,-104.492,0
1594888271.745,-96.680,-31.738,-454.102,-109.863,0
1594888271.749,-82.031,-30.273,-222.656,-112.793,0
1594888271.753,-80.566,-27.344,-215.820,-114.258,0
1594888271.757,-82.520,-21.973,-288.574,-107.910,0
1594888271.761,-81.543,-21.973,-454.102,-99.609,0
1594888271.764,-75.684,-23.438,-558.594,-94.727,0
1594888271.768,-76.660,-16.113,-272.461,-103.027,0
1594888271.772,-88.379,-15.137,-164.551,-108.398,0
1594888271.776,-91.797,-19.531,-306.641,-112.305,0
1594888271.780,-81.543,-18.555,-343.262,-111.816,0
1594888271.776,-64.453,-17.090,-274.902,-106.445,0
1594888271.780,-68.359,-18.066,-315.430,-106.445,0
1594888271.784,-78.613,-19.043,-332.520,-101.562,0
1594888271.788,-74.219,-17.578,-325.684,-89.355,0
1594888271.792,-70.801,-17.090,-334.961,-85.449,0
1594888271.796,-79.102,-22.949,-294.922,-95.215,0
1594888271.800,-86.426,-26.855,-286.621,-96.191,0
1594888271.803,-82.520,-22.949,-223.145,-90.820,0
1594888271.807,-69.336,-22.461,-229.980,-96.191,0
1594888271.811,-67.871,-30.762,-382.324,-92.773,0
1594888271.815,-77.148,-30.273,-366.699,-90.332,0
1594888271.819,-87.402,-34.180,-307.129,-95.703,0
1594888271.831,-84.473,-35.645,-189.941,-93.262,0
1594888271.835,-90.332,-27.344,-278.320,-89.355,0
1594888271.839,-109.375,-30.273,-357.910,-92.773,0
1594888271.843,-110.840,-32.227,-254.883,-91.309,0
1594888271.847,-104.004,-38.086,-286.133,-93.750,0
1594888271.851,-94.727,-37.109,-242.188,-88.867,0
1594888271.855,-95.215,-34.180,-373.047,-82.520,0
1594888271.858,-110.352,-36.133,-671.387,-89.844,0
1594888271.862,-106.934,-32.227,-481.934,-92.285,0
1594888271.866,-92.773,-34.668,-59.570,-87.891,0
1594888271.870,-94.727,-39.551,22.461,-93.750,0
1594888271.874,-107.422,-37.598,-185.059,-94.727,0
1594888271.887,-96.680,-33.691,-271.973,-86.426,0
1594888271.891,-82.031,-32.715,-145.020,-82.031,0
1594888271.895,-83.008,-35.645,25.879,-89.355,1
1594888271.899,-83.496,-32.715,-26.367,-91.797,0
1594888271.903,-85.449,-28.320,-253.418,-86.426,0
1594888271.907,-79.590,-29.785,-256.836,-88.379,0
1594888271.911,-78.125,-35.156,-282.227,-99.609,0
1594888271.914,-89.355,-37.598,-226.562,-102.539,0
1594888271.918,-91.797,-40.039,-125.488,-97.168,0
1594888271.922,-91.309,-42.480,-426.758,-98.145,0
1594888271.926,-85.938,-36.621,-416.992,-95.703,0
1594888271.930,-83.496,-36.133,-196.289,-84.961,0
1594888271.925,-103.516,-41.016,-214.355,-85.938,0
1594888271.929,-106.445,-36.621,-271.973,-82.520,0
1594888271.933,-90.820,-35.156,-280.762,-77.637,0
1594888271.937,-94.238,-36.133,-197.266,-79.102,0
1594888271.941,-111.328,-32.715,-320.312,-69.824,0
1594888271.945,-115.234,-34.180,-404.785,-67.383,0
1594888271.949,-99.609,-37.109,-356.934,-64.453,0
1594888271.952,-89.844,-34.668,-247.070,-67.871,0
1594888271.956,-96.191,-36.133,-193.848,-68.359,0
1594888271.960,-108.887,-35.645,-309.082,-55.664,0
1594888271.964,-109.375,-30.762,-239.746,-52.734,0
1594888271.968,-100.098,-31.738,-295.898,-52.246,0
1594888271.962,-100.098,-32.715,-652.832,-50.781,0
1594888271.966,-107.910,-32.227,-537.109,-63.477,0
1594888271.970,-95.703,-31.738,-164.551,-85.938,0
1594888271.974,-77.148,-30.273,-187.012,-104.004,0
1594888271.978,-85.449,-31.738,-347.168,-98.145,0
1594888271.982,-83.496,-29.297,-381.348,-80.566,0
1594888271.986,-87.891,-28.320,-350.098,-90.820,0
1594888271.989,-90.332,-25.879,-149.902,-95.703,0
1594888271.993,-82.520,-33.691,-146.973,-87.402,0
1594888271.997,-102.051,-40.039,-433.594,-99.121,0
1594888272.001,-113.281,-35.645,-275.391,-122.559,0
1594888272.005,-96.680,-35.645,-150.391,-135.742,0
1594888272.018,-84.473,-33.691,-231.934,-129.395,0
1594888272.022,-89.355,-32.715,-361.816,-123.047,0
1594888272.026,-92.773,-38.086,-415.039,-124.512,0
1594888272.030,-83.984,-40.039,-212.891,-117.188,0
1594888272.034,-80.566,-37.598,-236.816,-125.488,0
1594888272.038,-91.797,-32.227,-281.250,-140.625,0
1594888272.042,-101.074,-29.785,-422.363,-134.766,0
1594888272.045,-105.957,-38.086,-502.930,-131.348,0
1594888272.049,-92.773,-40.039,-203.613,-132.812,0
1594888272.053,-85.938,-35.156,-237.305,-131.348,0
1594888272.057,-110.840,-37.598,-371.094,-140.137,0
1594888272.061,-106.445,-42.480,-451.172,-139.160,0
1594888272.056,-84.473,-38.574,-361.328,-137.207,0
1594888272.060,-83.496,-30.273,-215.820,-138.184,0
1594888272.064,-97.168,-28.809,-267.090,-130.371,0
1594888272.068,-104.004,-30.762,-404.785,-133.301,0
1594888272.072,-93.262,-31.738,-440.430,-140.137,0
1594888272.076,-93.750,-29.297,-357.422,-138.184,0
1594888272.080,-97.168,-29.297,-349.121,-136.230,0
1594888272.083,-93.262,-31.250,-306.152,-141.113,0
1594888272.087,-74.219,-27.832,-332.031,-144.043,0
1594888272.091,-62.012,-30.273,-379.883,-141.602,0
1594888272.095,-73.242,-29.785,-261.230,-150.391,0
1594888272.099,-73.730,-25.879,-261.230,-149.902,0
1594888272.112,-73.730,-31.738,-202.637,-142.090,0
1594888272.116,-80.566,-32.227,-229.004,-148.926,0
1594888272.120,-83.984,-29.297,-325.195,-145.508,0
1594888272.124,-89.355,-33.203,-299.316,-140.137,0
1594888272.128,-86.914,-31.738,-341.797,-144.531,0
1594888272.132,-76.660,-33.203,-331.055,-141.602,0
1594888272.136,-82.520,-40.039,-392.090,-140.137,0
1594888272.139,-96.680,-40.039,-578.125,-142.578,0
1594888272.143,-101.562,-37.598,-369.629,-145.996,0
1594888272.147,-92.773,-32.715,-126.465,-149.902,0
1594888272.151,-84.473,-28.320,-187.500,-149.902,0
1594888272.155,-99.609,-31.738,-356.445,-143.066,0
1594888272.150,-109.375,-34.668,-384.766,-135.254,0
1594888272.154,-91.309,-29.785,-110.840,-128.906,0
1594888272.158,-74.707,-29.297,101.562,-119.629,0
1594888272.162,-71.289,-31.250,-62.988,-110.352,0
1594888272.166,-76.660,-31.250,-310.059,-111.816,0
1594888272.170,-85.449,-32.715,-388.184,-119.629,0
1594888272.174,-82.031,-34.180,-322.266,-128.906,0
1594888272.177,-73.242,-35.156,-228.516,-138.184,0
1594888272.181,-80.566,-31.250,-302.734,-139.648,0
1594888272.185,-89.355,-28.809,-537.598,-114.258,0
1594888272.189,-85.449,-30.762,-420.898,-96.191,0
1594888272.193,-88.379,-31.250,-228.516,-92.285,0
1594888272.206,-103.027,-34.180,-290.527,-82.031,0
1594888272.210,-98.145,-33.203,-429.688,-84.473,0
1594888272.214,-79.590,-29.785,-407.715,-88.867,0
1594888272.218,-74.707,-31.738,-147.461,-91.309,0
1594888272.222,-72.754,-30.273,-240.234,-87.891,0
1594888272.226,-87.402,-26.855,-372.070,-85.449,0
1594888272.230,-95.703,-27.344,-501.953,-102.051,0
1594888272.233,-78.613,-29.297,-516.602,-112.793,0
1594888272.237,-76.172,-26.855,-13.672,-121.582,0
1594888272.241,-83.008,-25.879,97.656,-131.836,0
1594888272.245,-75.195,-26.367,-145.996,-131.348,0
1594888272.249,-63.477,-24.902,-338.379,-136.719,0
1594888272.245,-72.266,-30.273,-263.184,-140.137,0
1594888272.249,-94.238,-32.715,-97.656,-127.930,0
1594888272.253,-101.562,-39.551,-57.617,-120.117,0
1594888272.257,-90.332,-38.574,-166.016,-126.465,0
1594888272.261,-92.285,-30.762,-369.141,-131.348,0
1594888272.265,-103.027,-30.273,-369.141,-123.047,0
1594888272.269,-98.633,-32.227,-320.801,-115.234,0
1594888272.272,-83.496,-34.180,-226.074,-125.488,0
1594888272.276,-75.684,-34.668,-256.348,-132.812,0
1594888272.280,-79.590,-32.715,-405.273,-129.883,0
1594888272.284,-94.238,-26.855,-256.348,-131.348,0
1594888272.288,-107.910,-28.320,-217.285,-131.348,0
1594888272.300,-103.027,-35.645,-209.961,-138.672,0
1594888272.304,-105.957,-40.039,-311.035,-142.578,0
1594888272.308,-109.375,-41.504,-475.098,-136.719,0
1594888272.312,-98.633,-37.109,-313.477,-133.789,0
1594888272.316,-74.219,-26.855,-257.812,-122.559,0
1594888272.320,-62.500,-22.461,-278.320,-114.258,0
1594888272.324,-74.219,-27.344,-481.934,-107.422,0
1594888272.327,-83.984,-29.297,-598.633,-93.750,0
1594888272.331,-76.172,-29.785,-243.652,-85.938,0
1594888272.335,-70.801,-30.762,-194.824,-84.961,0
1594888272.339,-89.355,-30.762,-199.707,-89.844,0
1594888272.343,-90.820,-34.180,-417.969,-84.473,0
1594888272.337,-80.566,-37.598,-484.863,-77.148,0
1594888272.341,-72.754,-37.109,-153.809,-82.031,0
1594888272.345,-73.242,-31.250,-175.293,-74.219,0
1594888272.349,-88.379,-28.320,-251.953,-69.336,0
1594888272.353,-104.980,-33.203,-310.547,-58.594,0
1594888272.357,-104.004,-28.809,-275.391,-59.570,0
1594888272.361,-99.121,-21.484,-276.367,-76.660,0
1594888272.364,-109.863,-23.438,-349.609,-81.055,0
1594888272.368,-105.469,-25.879,-302.734,-83.984,0
1594888272.372,-89.355,-29.297,-515.137,-84.473,0
1594888272.376,-84.961,-30.762,-459.961,-90.332,0
1594888272.380,-89.355,-29.785,-208.008,-102.539,0
1594888272.394,-82.031,-28.809,-200.684,-98.145,0
1594888272.398,-68.359,-28.320,-267.578,-97.656,0
1594888272.402,-63.965,-27.832,-312.988,-104.004,0
1594888272.406,-69.824,-26.367,-181.152,-107.910,0
1594888272.410,-80.566,-24.902,-272.461,-114.746,0
1594888272.414,-66.895,-22.461,-337.402,-122.559,0
1594888272.418,-51.758,-21.484,-378.418,-126.465,0
1594888272.421,-56.152,-25.879,-551.270,-128.906,0
1594888272.425,-60.059,-25.391,-410.156,-136.719,0
1594888272.429,-60.547,-19.043,-241.211,-140.137,0
1594888272.433,-53.711,-20.020,-83.008,-138.672,0
1594888272.437,-63.965,-23.438,-195.312,-130.859,0
1594888272.431,-88.379,-19.531,-350.586,-130.371,0
1594888272.435,-90.332,-24.902,-285.645,-138.184,0
1594888272.439,-79.590,-29.297,-68.848,-137.695,0
1594888272.443,-76.172,-26.367,4.883,-132.324,0
1594888272.447,-80.078,-28.809,-279.297,-122.559,0
1594888272.451,-84.473,-29.785,-354.492,-118.652,0
1594888272.455,-83.008,-24.902,-311.035,-112.305,0
1594888272.458,-84.473,-18.555,-255.859,-111.816,0
1594888272.462,-90.332,-19.531,-211.426,-110.840,0
1594888272.466,-103.027,-24.414,-402.832,-105.469,0
1594888272.470,-99.121,-23.926,-270.508,-97.656,0
1594888272.474,-86.914,-27.344,-2.930,-91.797,0
1594888272.487,-86.914,-25.879,-37.598,-97.168,0
1594888272.491,-95.215,-26.367,-318.359,-92.773,0
1594888272.495,-93.262,-29.785,-487.793,-86.426,0
1594888272.499,-81.543,-26.855,-206.055,-95.703,0
1594888272.503,-77.637,-21.973,-78.613,-105.469,0
1594888272.507,-83.496,-23.438,-222.656,-96.680,0
1594888272.511,-85.938,-24.902,-461.914,-80.566,0
1594888272.514,-75.684,-23.438,-473.633,-73.730,0
1594888272.518,-68.848,-22.949,-166.992,-72.754,0
1594888272.522,-83.496,-25.879,-186.035,-72.266,0
1594888272.526,-89.844,-27.832,-232.422,-68.359,0
1594888272.530,-71.777,-29.297,-315.918,-57.617,0
1594888272.526,-62.012,-27.832,-296.875,-57.129,0
1594888272.530,-69.824,-27.344,-264.648,-62.012,0
1594888272.534,-85.449,-28.809,-305.176,-63.965,0
1594888272.538,-96.680,-27.832,-227.051,-56.641,0
1594888272.542,-93.750,-28.320,-277.344,-48.340,0
1594888272.546,-91.309,-31.738,-268.066,-40.527,0
1594888272.550,-95.215,-33.691,-286.133,-35.645,0
1594888272.553,-89.844,-28.809,-255.859,-44.434,0
1594888272.557,-71.777,-27.344,-275.391,-56.641,0
1594888272.561,-75.684,-35.156,-381.348,-68.359,0
1594888272.565,-90.332,-34.668,-342.773,-87.891,0
1594888272.569,-89.844,-33.203,-262.695,-99.609,0
1594888272.581,-85.449,-37.598,-137.207,-101.562,0
1594888272.585,-77.148,-35.156,-248.535,-102.539,0
1594888272.589,-87.891,-29.785,-333.984,-99.609,0
1594888272.593,-109.863,-22.461,-279.297,-88.379,0
1594888272.597,-101.562,-23.926,-293.945,-83.984,0
1594888272.601,-87.891,-28.809,-283.203,-77.148,0
1594888272.605,-90.820,-29.785,-413.086,-68.848,0
1594888272.608,-96.680,-31.250,-642.090,-59.570,0
1594888272.612,-94.238,-29.785,-428.711,-54.199,0
1594888272.616,-80.566,-28.809,-74.219,-63.477,0
1594888272.620,-73.730,-28.809,-188.477,-64.453,0
1594888272.624,-88.867,-31.250,-351.562,-56.641,0
1594888272.618,-100.098,-33.203,-259.277,-63.477,0
1594888272.622,-87.402,-34.668,-230.957,-76.172,0
1594888272.626,-75.195,-32.227,-252.930,-72.266,0
1594888272.630,-81.543,-27.832,-300.293,-70.801,0
1594888272.634,-84.961,-35.645,-370.117,-92.285,0
1594888272.638,-75.684,-37.598,-361.816,-113.770,0
1594888272.642,-79.590,-30.273,-335.449,-127.930,0
1594888272.645,-91.309,-32.715,-331.543,-137.207,0
1594888272.649,-94.727,-39.062,-342.285,-144.043,0
1594888272.653,-83.984,-35.645,-506.836,-139.160,0
1594888272.657,-78.125,-35.645,-458.008,-141.602,0
1594888272.661,-91.309,-33.691,-287.109,-151.855,0
1594888272.675,-101.562,-30.762,-286.133,-157.715,0
1594888272.679,-109.375,-37.109,-319.336,-158.203,0
1594888272.683,-101.562,-36.133,-382.812,-154.297,0
1594888272.687,-96.191,-30.273,-232.910,-153.320,0
1594888272.691,-107.910,-29.297,-266.602,-147.461,0
1594888272.695,-99.121,-29.785,-301.270,-143.555,0
1594888272.699,-87.891,-36.133,-346.680,-141.113,0
1594888272.702,-86.914,-36.133,-540.039,-136.230,0
1594888272.706,-86.426,-32.227,-296.387,-131.836,0
1594888272.710,-95.215,-35.156,-21.973,-134.277,0
1594888272.714,-86.426,-29.297,-27.832,-133.301,0
1594888272.718,-72.754,-28.809,-259.277,-126.953,0
1594888272.712,-81.055,-35.156,-319.824,-132.812,0
1594888272.716,-90.332,-29.785,-220.215,-126.953,0
1594888272.720,-82.520,-25.391,-230.957,-118.652,0
1594888272.724,-79.590,-24.414,-222.168,-133.301,0
1594888272.728,-95.703,-28.320,-247.559,-154.297,0
1594888272.732,-109.375,-32.227,-341.797,-161.133,0
1594888272.736,-103.027,-30.273,-354.492,-153.320,0
1594888272.739,-88.379,-32.227,-197.754,-147.949,0
1594888272.743,-86.914,-36.133,-191.406,-151.367,0
1594888272.747,-101.074,-36.621,-368.164,-151.855,0
1594888272.751,-106.445,-42.480,-317.871,-152.344,0
1594888272.755,-85.449,-37.598,-186.523,-160.645,0
1594888272.769,-74.219,-28.320,-201.172,-159.180,2
1594888272.773,-86.914,-36.133,-391.602,-160.645,0
1594888272.777,-89.355,-38.086,-434.082,-169.434,0
1594888272.781,-94.727,-34.180,-253.418,-170.410,0
1594888272.785,-103.027,-35.156,-226.562,-164.062,0
1594888272.789,-99.121,-33.691,-232.422,-156.250,0
1594888272.793,-104.980,-33.691,-428.711,-147.461,0
1594888272.796,-96.680,-29.785,-574.219,-135.254,0
1594888272.800,-76.660,-22.461,-208.984,-141.602,0
1594888272.804,-70.801,-25.391,-19.531,-154.297,0
1594888272.808,-80.566,-25.879,-214.844,-152.344,0
1594888272.812,-86.914,-21.973,-354.980,-146.484,0
1594888272.806,-84.473,-25.391,-202.148,-144.043,0
1594888272.810,-89.355,-29.297,26.367,-134.766,0
1594888272.814,-97.168,-32.715,-7.812,-133.789,0
1594888272.818,-101.074,-34.668,-261.230,-137.207,0
1594888272.822,-86.914,-35.645,-354.980,-128.418,0
1594888272.826,-74.219,-33.691,-306.152,-125.000,0
1594888272.830,-86.426,-31.738,-299.805,-132.812,0
1594888272.833,-98.145,-34.180,-240.234,-131.836,0
1594888272.837,-95.703,-34.668,-196.289,-125.000,0
1594888272.841,-93.262,-32.227,-376.953,-124.023,0
1594888272.845,-93.262,-31.250,-358.887,-125.977,0
1594888272.849,-101.562,-30.762,-195.801,-126.465,0
1594888272.862,-109.863,-31.738,-288.086,-122.070,0
1594888272.866,-98.633,-36.133,-229.492,-115.723,0
1594888272.870,-87.891,-32.715,-253.418,-104.980,0
1594888272.874,-88.867,-32.227,-211.426,-109.375,0
1594888272.878,-87.891,-33.203,-282.227,-108.398,0
1594888272.882,-73.242,-34.668,-340.332,-96.680,0
1594888272.886,-60.059,-32.227,-388.672,-100.098,0
1594888272.889,-65.430,-27.832,-562.988,-101.562,0
1594888272.893,-74.707,-31.738,-373.047,-103.516,0
1594888272.897,-74.707,-37.109,-217.285,-104.980,0
1594888272.901,-69.824,-32.715,-88.379,-106.445,0
1594888272.905,-78.613,-35.156,-298.340,-101.074,0
1594888272.900,-90.820,-39.062,-440.430,-91.309,0
1594888272.904,-89.844,-32.715,-182.617,-86.426,0
1594888272.908,-83.008,-28.809,-71.289,-82.031,0
1594888272.912,-91.309,-30.273,-210.449,-89.355,0
1594888272.916,-104.980,-30.273,-373.535,-95.703,0
1594888272.920,-96.680,-26.367,-302.734,-107.910,0
1594888272.924,-87.891,-29.785,-187.988,-118.164,0
1594888272.927,-87.402,-29.297,-69.336,-123.535,0
1594888272.931,-95.215,-28.320,-266.113,-130.859,0
1594888272.935,-104.980,-29.297,-445.312,-137.207,0
1594888272.939,-99.121,-29.785,-252.441,-137.207,0
1594888272.943,-96.680,-32.715,-196.777,-130.859,0
1594888272.956,-104.004,-34.180,-223.633,-120.605,0
1594888272.960,-104.492,-31.250,-321.777,-97.168,0
1594888272.964,-91.309,-29.297,-349.609,-87.402,0
1594888272.968,-84.961,-33.691,-132.324,-93.750,0
1594888272.972,-91.309,-31.738,-262.695,-93.750,0
1594888272.976,-102.539,-28.320,-370.117,-85.938,0
1594888272.980,-97.168,-25.391,-365.723,-83.496,0
1594888272.983,-77.148,-21.484,-500.977,-86.914,0
1594888272.987,-79.102,-29.785,-327.148,-83.984,0
1594888272.991,-94.727,-28.320,-128.418,-88.379,0
1594888272.995,-87.402,-23.926,-93.262,-87.891,0
1594888272.999,-77.148,-29.297,-174.805,-82.520,0
1594888272.995,-84.961,-30.273,-210.449,-93.262,0
1594888272.999,-98.145,-29.297,-253.906,-110.840,0
1594888273.003,-94.238,-28.809,-274.902,-107.910,0
1594888273.007,-83.496,-28.809,-221.680,-111.816,0
1594888273.011,-84.473,-28.809,-345.215,-129.395,0
1594888273.015,-86.914,-26.367,-445.312,-135.254,0
1594888273.019,-96.191,-21.973,-394.043,-139.160,0
1594888273.022,-94.238,-25.879,-202.637,-139.648,0
1594888273.026,-80.566,-29.297,-90.820,-155.762,0
1594888273.030,-83.984,-24.902,-315.918,-169.434,0
1594888273.034,-86.426,-22.949,-313.965,-164.062,0
1594888273.038,-87.402,-30.273,-186.035,-164.551,0
1594888273.050,-87.402,-31.738,-84.961,-166.504,0
1594888273.054,-93.262,-24.414,-185.547,-165.527,0
1594888273.058,-103.027,-25.879,-405.273,-164.062,0
1594888273.062,-100.098,-30.273,-316.895,-164.551,0
1594888273.066,-93.262,-33.691,-277.832,-164.062,0
1594888273.070,-96.191,-35.645,-308.105,-163.086,0
1594888273.074,-102.539,-38.086,-421.387,-158.203,0
1594888273.077,-101.074,-36.621,-672.363,-153.320,0
1594888273.081,-88.867,-31.738,-451.172,-150.391,0
1594888273.085,-81.543,-30.762,-100.586,-148.926,0
1594888273.089,-97.656,-33.203,-213.867,-153.320,0
1594888273.093,-107.422,-32.715,-338.867,-145.996,0
1594888273.087,-98.145,-32.715,-243.652,-133.301,0
1594888273.091,-91.309,-32.715,-180.664,-125.000,0
1594888273.095,-87.891,-38.574,-156.250,-122.070,0
1594888273.099,-83.984,-37.598,-250.000,-126.953,0
1594888273.103,-86.426,-33.203,-352.051,-122.559,0
1594888273.107,-82.520,-38.574,-296.875,-112.793,0
1594888273.111,-78.613,-37.109,-283.691,-113.281,0
1594888273.114,-95.703,-31.250,-269.043,-110.840,0
1594888273.118,-102.051,-30.762,-234.863,-92.285,0
1594888273.122,-86.914,-29.297,-444.336,-82.520,0
1594888273.126,-88.867,-26.367,-420.898,-90.332,0
1594888273.130,-96.191,-31.250,-235.840,-89.844,0
1594888273.143,-94.238,-36.133,-236.816,-94.727,0
1594888273.147,-82.031,-32.715,-255.371,-92.773,0
1594888273.151,-75.195,-31.250,-339.355,-78.613,0
1594888273.155,-84.961,-29.785,-271.973,-77.637,0
1594888273.159,-100.586,-30.762,-323.242,-76.172,0
1594888273.163,-95.703,-35.156,-339.355,-79.102,0
1594888273.167,-87.891,-31.250,-398.926,-77.148,0
1594888273.170,-89.844,-27.832,-548.340,-61.523,0
1594888273.174,-97.168,-28.809,-402.344,-67.383,0
1594888273.178,-98.633,-28.809,-274.414,-73.730,0
1594888273.182,-79.590,-26.855,-116.699,-69.824,0
1594888273.186,-71.777,-27.832,-220.703,-73.242,0
1594888273.181,-87.402,-26.367,-335.938,-74.219,0
1594888273.185,-85.449,-24.902,-228.027,-65.430,0
1594888273.189,-74.707,-27.832,-180.176,-61.523,0
1594888273.193,-74.707,-30.273,-177.246,-80.566,0
1594888273.197,-78.613,-30.273,-260.254,-89.355,0
1594888273.201,-89.355,-32.715,-272.949,-83.984,0
1594888273.205,-83.984,-31.250,-255.371,-84.961,0
1594888273.208,-75.684,-25.391,-73.730,-86.426,0
1594888273.212,-95.215,-27.344,-182.617,-95.215,0
1594888273.216,-108.398,-34.180,-451.172,-100.098,0
1594888273.220,-99.609,-34.668,-284.668,-100.586,0
1594888273.224,-87.891,-33.691,-255.859,-99.121,0
1594888273.237,-92.285,-36.621,-248.047,-103.027,0
1594888273.241,-91.309,-32.227,-294.434,-100.586,0
1594888273.245,-93.750,-33.203,-341.309,-86.426,0
1594888273.249,-97.656,-38.574,-44.922,-92.773,0
1594888273.253,-101.562,-39.062,-6.348,-90.820,0
1594888273.257,-125.977,-37.109,-256.836,-87.891,0
1594888273.261,-127.930,-32.715,-488.770,-90.332,0
1594888273.264,-107.910,-35.645,-533.691,-87.891,0
1594888273.268,-99.121,-37.109,-226.562,-94.238,0
1594888273.272,-101.562,-31.738,-11.230,-101.074,0
1594888273.276,-103.027,-29.297,-159.668,-101.074,0
1594888273.280,-93.262,-28.320,-266.602,-99.609,0
1594888273.275,-80.566,-28.809,-37.598,-94.727,0
1594888273.279,-88.867,-27.344,-88.379,-95.703,0
1594888273.283,-101.562,-30.762,-314.453,-100.098,0
1594888273.287,-96.191,-35.156,-318.359,-92.773,0
1594888273.291,-88.867,-36.133,-333.496,-80.566,0
1594888273.295,-92.285,-37.598,-343.262,-78.125,0
1594888273.299,-106.445,-33.691,-316.895,-77.148,0
1594888273.302,-106.445,-32.715,-143.555,-81.543,0
1594888273.306,-84.473,-36.133,23.926,-82.520,0
1594888273.310,-83.496,-35.645,-207.031,-81.055,0
1594888273.314,-101.562,-34.668,-269.043,-83.496,0
1594888273.318,-102.051,-39.062,-191.406,-84.473,0
1594888273.331,-88.867,-40.039,-164.551,-83.984,0
1594888273.335,-83.496,-32.715,-192.871,-77.637,0
1594888273.339,-93.262,-33.691,-319.824,-77.148,0
1594888273.343,-101.562,-34.668,-212.402,-72.266,0
1594888273.347,-96.191,-34.180,-242.188,-64.453,0
1594888273.351,-82.520,-33.691,-222.168,-74.707,0
1594888273.355,-81.543,-27.832,-339.844,-85.449,0
1594888273.358,-101.074,-29.297,-658.691,-83.984,0
1594888273.362,-104.980,-30.762,-411.133,-83.496,0
1594888273.366,-85.938,-25.391,-135.742,-83.008,0
1594888273.370,-85.449,-25.879,-202.637,-85.938,0
1594888273.374,-92.773,-31.250,-365.234,-85.938,0
1594888273.368,-89.844,-30.273,-308.105,-77.148,0
1594888273.372,-74.707,-28.809,-132.812,-78.125,0
1594888273.376,-71.289,-28.320,-203.125,-89.844,0
1594888273.380,-88.867,-31.250,-273.926,-104.004,0
1594888273.384,-91.797,-32.715,-331.055,-102.539,0
1594888273.388,-84.473,-32.715,-323.242,-100.586,0
1594888273.392,-82.520,-32.227,-242.188,-104.492,0
1594888273.395,-89.844,-29.785,-224.609,-102.051,0
1594888273.399,-103.516,-34.668,-346.680,-117.676,0
1594888273.403,-94.727,-36.133,-533.691,-119.141,0
1594888273.407,-78.125,-29.297,-404.785,-97.656,0
1594888273.411,-76.172,-30.762,-152.832,-94.238,0
1594888273.425,-83.008,-36.133,-237.305,-93.262,0
1594888273.429,-79.590,-34.180,-355.957,-87.402,0
1594888273.433,-67.383,-38.086,-317.871,-90.332,0
1594888273.437,-68.848,-41.016,-171.387,-98.145,0
1594888273.441,-88.379,-40.039,-288.574,-104.004,0
1594888273.445,-102.539,-36.133,-364.746,-104.980,0
1594888273.449,-100.098,-35.645,-405.762,-99.609,0
1594888273.452,-99.609,-35.156,-555.664,-97.656,0
1594888273.456,-103.516,-32.715,-379.395,-96.191,0
1594888273.460,-109.375,-33.691,-209.473,-96.191,0
1594888273.464,-101.074,-31.738,-182.617,-104.492,0
1594888273.468,-83.008,-33.203,-184.082,-110.352,0
1594888273.463,-90.332,-34.668,-217.285,-112.305,0
1594888273.467,-102.051,-30.762,-250.977,-118.164,0
1594888273.471,-91.797,-26.367,-173.828,-126.465,0
1594888273.475,-80.566,-30.273,-164.062,-113.281,0
1594888273.479,-75.684,-38.086,-337.891,-106.934,0
1594888273.483,-77.637,-32.715,-377.441,-116.211,0
1594888273.487,-81.055,-28.320,-257.812,-110.840,0
1594888273.490,-69.824,-27.832,-130.371,-105.957,0
1594888273.494,-70.801,-31.738,-224.609,-106.445,0
1594888273.498,-92.285,-33.203,-464.355,-104.004,0
1594888273.502,-96.191,-25.391,-418.457,-93.750,0
1594888273.506,-88.379,-29.785,-244.141,-89.355,0
1594888273.520,-88.867,-35.156,-165.039,-91.309,0
1594888273.524,-92.773,-32.227,-377.441,-89.844,0
1594888273.528,-97.656,-31.738,-391.113,-94.727,0
1594888273.532,-89.355,-32.227,-93.750,-101.074,0
1594888273.536,-81.543,-35.645,-105.957,-107.910,0
1594888273.540,-89.355,-34.668,-320.312,-108.398,0
1594888273.544,-92.285,-30.762,-449.219,-110.840,0
1594888273.547,-82.031,-31.250,-572.266,-93.750,0
1594888273.551,-73.730,-34.668,-356.445,-80.078,0
1594888273.555,-75.684,-32.715,-39.551,-92.773,0
1594888273.559,-93.262,-30.273,-248.047,-89.355,0
1594888273.563,-94.238,-27.832,-344.238,-89.844,0
1594888273.556,-82.520,-28.320,-63.477,-98.145,0
1594888273.560,-86.426,-29.785,-27.832,-94.727,0
1594888273.564,-96.680,-31.250,-212.402,-95.215,0
1594888273.568,-101.562,-30.762,-297.852,-103.027,0
1594888273.572,-92.285,-33.203,-344.238,-104.492,2
1594888273.576,-95.215,-37.109,-300.293,-104.492,0
1594888273.580,-107.910,-35.156,-331.543,-115.723,0
1594888273.583,-106.934,-31.250,-290.527,-121.094,0
1594888273.587,-96.191,-29.785,-156.738,-119.141,0
1594888273.591,-88.379,-28.809,-419.434,-113.770,0
1594888273.595,-90.820,-27.344,-402.832,-114.746,0
1594888273.599,-98.145,-27.344,-192.383,-120.605,0
1594888273.612,-94.727,-29.297,-122.559,-120.117,0
1594888273.616,-85.938,-28.320,-37.598,-124.512,0
1594888273.620,-76.172,-25.879,-240.723,-123.535,0
1594888273.624,-86.914,-25.879,-255.371,-125.977,0
1594888273.628,-95.703,-28.809,-235.840,-124.512,0
1594888273.632,-82.520,-35.156,-262.207,-120.605,0
1594888273.636,-83.984,-37.109,-351.562,-122.559,0
1594888273.639,-103.027,-33.691,-602.539,-118.164,0
1594888273.643,-100.098,-31.250,-409.180,-126.953,0
1594888273.647,-81.543,-30.762,-171.875,-135.742,0
1594888273.651,-83.984,-31.250,-214.355,-136.230,0
1594888273.655,-92.285,-34.668,-375.488,-133.789,0
1594888273.650,-92.773,-35.645,-389.160,-120.117,0
1594888273.654,-87.402,-32.715,-256.836,-121.582,0
1594888273.658,-80.078,-31.250,-136.719,-126.953,0
1594888273.662,-83.496,-28.320,-184.082,-123.047,0
1594888273.666,-99.121,-28.809,-305.176,-121.582,0
1594888273.670,-97.168,-33.203,-291.504,-123.047,0
1594888273.674,-83.008,-33.203,-255.859,-121.094,0
1594888273.677,-82.520,-33.691,-43.945,-126.953,0
1594888273.681,-87.402,-35.156,-119.141,-131.348,0
1594888273.685,-85.449,-29.785,-407.227,-128.418,0
1594888273.689,-64.453,-27.832,-372.559,-136.230,0
1594888273.693,-61.035,-33.203,-226.074,-141.113,0
1594888273.706,-79.102,-27.344,-101.562,-150.879,0
1594888273.710,-81.543,-25.879,-294.434,-152.344,0
1594888273.714,-77.637,-27.344,-404.785,-138.184,0
1594888273.718,-71.777,-23.438,-200.684,-131.836,0
1594888273.722,-77.148,-23.438,-286.621,-120.117,0
1594888273.726,-83.984,-23.926,-333.008,-103.516,0
1594888273.730,-79.590,-28.320,-426.270,-103.027,0
1594888273.733,-71.289,-30.762,-526.855,-101.562,0
1594888273.737,-79.102,-29.297,-283.203,-101.074,0
1594888273.741,-92.773,-34.180,-233.398,-104.980,0
1594888273.745,-92.285,-36.133,-253.418,-99.121,0
1594888273.749,-83.984,-32.715,-237.793,-89.355,0
1594888273.745,-84.473,-26.367,-197.266,-81.543,0
1594888273.749,-90.332,-23.926,-328.613,-74.707,0
1594888273.753,-91.309,-26.855,-325.684,-67.383,0
1594888273.757,-88.867,-30.762,-240.723,-53.223,0
1594888273.761,-83.496,-25.879,-314.941,-41.992,0
1594888273.765,-87.402,-24.414,-335.938,-45.898,0
1594888273.769,-96.191,-33.691,-343.262,-52.734,0
1594888273.772,-87.891,-29.785,-207.031,-53.223,0
1594888273.776,-83.008,-31.738,-168.945,-61.035,0
1594888273.780,-92.773,-35.645,-434.570,-86.426,0
1594888273.784,-99.121,-38.086,-462.891,-99.121,0
1594888273.788,-97.168,-31.738,-225.586,-102.051,0
1594888273.800,-77.148,-22.461,-204.590,-102.539,0
1594888273.804,-70.312,-23.926,-283.203,-103.027,0
1594888273.808,-74.707,-22.949,-322.266,-104.492,0
1594888273.812,-70.312,-26.367,-229.980,-96.680,0
1594888273.816,-58.594,-26.367,-287.598,-100.586,0
1594888273.820,-62.012,-24.902,-273.438,-102.539,0
1594888273.824,-81.055,-27.832,-403.809,-98.633,0
1594888273.827,-89.844,-29.297,-504.395,-104.492,0
1594888273.831,-82.520,-27.832,-200.195,-111.816,0
1594888273.835,-74.707,-24.414,-62.500,-119.629,0
1594888273.839,-83.008,-28.809,-49.316,-122.070,0
1594888273.843,-94.238,-34.180,-382.324,-113.770,0
1594888273.837,-88.867,-28.809,-482.422,-98.145,0
1594888273.841,-77.148,-26.367,-102.051,-92.285,0
1594888273.845,-90.820,-36.133,18.066,-94.727,0
1594888273.849,-104.004,-40.527,-233.887,-92.285,0
1594888273.853,-99.609,-35.156,-351.074,-100.586,0
1594888273.857,-89.844,-33.691,-228.516,-110.352,0
1594888273.861,-94.727,-36.133,-259.766,-120.605,0
1594888273.864,-107.910,-38.086,-328.125,-128.906,0
1594888273.868,-112.305,-37.598,-251.953,-124.512,0
1594888273.872,-99.121,-35.645,-406.738,-118.652,0
1594888273.876,-96.680,-34.180,-348.633,-126.953,0
1594888273.880,-104.004,-30.762,-166.016,-122.070,0
1594888273.893,-100.098,-30.273,-202.148,-101.562,0
1594888273.897,-85.938,-28.809,-261.230,-103.027,0
1594888273.901,-79.590,-28.809,-148.438,-101.562,0
1594888273.905,-88.379,-28.320,-47.852,-99.121,0
1594888273.909,-103.027,-28.320,-354.004,-110.840,0
1594888273.913,-107.422,-31.738,-361.328,-118.652,0
1594888273.917,-89.844,-35.156,-416.016,-113.770,0
1594888273.920,-91.797,-37.109,-593.750,-121.582,0
1594888273.924,-107.422,-35.156,-362.793,-136.719,0
1594888273.928,-99.609,-35.645,-226.562,-139.160,0
1594888273.932,-89.355,-38.086,-254.395,-132.812,0
1594888273.936,-87.891,-34.180,-313.477,-127.930,0
1594888273.931,-91.797,-26.367,-301.758,-131.836,0
1594888273.935,-95.215,-26.367,-163.574,-125.488,0
1594888273.939,-79.102,-29.785,-179.199,-117.676,0
1594888273.943,-74.219,-30.762,-236.816,-106.934,0
1594888273.947,-83.008,-35.156,-319.824,-97.656,0
1594888273.951,-83.984,-31.738,-378.418,-106.934,0
1594888273.955,-83.496,-25.879,-213.379,-122.070,0
1594888273.958,-78.125,-24.902,31.738,-123.535,0
1594888273.962,-82.031,-26.367,64.453,-124.512,0
1594888273.966,-99.121,-31.738,-199.707,-122.070,0
1594888273.970,-95.215,-32.715,-151.855,-124.023,0
1594888273.974,-91.797,-29.297,38.086,-144.043,0
1594888273.987,-101.074,-26.855,-127.441,-155.762,0
1594888273.991,-120.605,-31.738,-291.504,-150.391,0
1594888273.995,-127.930,-38.086,-306.152,-143.066,0
1594888273.999,-120.117,-37.598,-104.980,-142.578,0
1594888274.003,-115.234,-37.109,-172.363,-145.020,0
1594888274.007,-118.652,-39.551,-297.852,-140.137,0
1594888274.011,-117.676,-42.969,-395.996,-126.953,0
1594888274.014,-97.656,-40.527,-554.199,-125.488,0
1594888274.018,-89.844,-32.715,-235.352,-123.535,0
1594888274.022,-99.609,-27.344,-103.027,-105.957,0
1594888274.026,-98.633,-24.902,-253.418,-84.961,0
1594888274.030,-89.355,-24.902,-264.160,-71.777,0
1594888274.025,-80.078,-34.668,-72.266,-83.008,0
1594888274.029,-85.449,-38.574,68.848,-92.773,0
1594888274.033,-88.867,-33.691,-139.648,-64.941,0
1594888274.037,-79.102,-27.832,-301.270,-43.945,0
1594888274.041,-67.871,-25.391,-283.203,-57.617,0
1594888274.045,-64.453,-30.273,-297.363,-74.707,0
1594888274.049,-77.637,-31.250,-257.324,-82.031,0
1594888274.052,-81.543,-25.879,-168.945,-78.613,0
1594888274.056,-68.359,-25.879,-200.195,-56.152,0
1594888274.060,-66.406,-24.414,-312.988,-45.898,0
1594888274.064,-76.172,-24.902,-301.758,-63.477,0
1594888274.068,-85.449,-29.785,-198.730,-66.406,0
1594888274.081,-87.891,-33.203,-157.715,-62.988,0
1594888274.085,-87.402,-33.203,-231.934,-69.336,0
1594888274.089,-99.609,-30.273,-292.480,-79.590,0
1594888274.093,-115.723,-33.691,-292.480,-90.820,0
1594888274.097,-109.375,-35.645,-299.805,-87.891,0
1594888274.101,-94.238,-32.715,-219.727,-91.309,0
1594888274.105,-95.703,-31.738,-327.637,-107.422,0
1594888274.108,-103.027,-32.227,-594.727,-104.004,0
1594888274.112,-99.609,-27.832,-450.195,-99.609,0
1594888274.116,-84.961,-26.855,-136.230,-109.375,0
1594888274.120,-81.055,-29.785,19.043,-112.793,0
1594888274.124,-85.938,-24.902,-123.047,-105.469,0
1594888274.118,-87.891,-23.438,-291.504,-101.562,0
1594888274.122,-73.730,-22.949,-115.234,-107.422,0
1594888274.126,-72.266,-25.879,-18.066,-114.746,0
1594888274.130,-85.449,-26.367,-208.008,-112.305,0
1594888274.134,-83.008,-23.926,-376.465,-100.098,0
1594888274.138,-70.801,-27.832,-325.684,-104.492,0
1594888274.142,-67.383,-30.273,-213.379,-117.188,0
1594888274.145,-75.684,-31.738,-182.129,-117.188,0
1594888274.149,-84.961,-29.785,-221.191,-106.445,0
1594888274.153,-90.820,-32.227,-454.102,-94.727,0
1594888274.157,-85.938,-36.133,-329.590,-89.844,0
1594888274.161,-84.473,-37.598,-135.254,-88.867,0
1594888274.175,-86.914,-33.203,-226.562,-83.008,0
1594888274.179,-90.332,-28.320,-292.969,-81.543,0
1594888274.183,-87.402,-33.691,-267.578,-79.590,0
1594888274.187,-88.867,-34.668,-158.203,-73.730,0
1594888274.191,-98.633,-29.785,-270.508,-62.012,0
1594888274.195,-100.098,-28.320,-321.777,-57.617,0
1594888274.199,-84.473,-27.832,-352.539,-67.383,0
1594888274.202,-81.543,-28.809,-577.148,-75.684,0
1594888274.206,-97.656,-25.879,-373.047,-94.727,0
1594888274.210,-100.586,-24.902,-173.340,-98.145,0
1594888274.214,-84.473,-27.832,-211.914,-86.426,0
1594888274.218,-79.102,-33.203,-248.047,-94.238,0
1594888274.213,-82.520,-31.250,-280.273,-99.609,0
1594888274.217,-91.309,-30.762,-189.453,-99.609,0
1594888274.221,-83.008,-31.250,-183.594,-101.562,0
1594888274.225,-69.824,-27.832,-201.660,-106.445,0
1594888274.229,-64.941,-29.785,-318.848,-109.375,0
1594888274.233,-62.500,-29.785,-407.715,-122.559,0
1594888274.237,-64.453,-21.973,-373.535,-123.047,0
1594888274.240,-51.270,-21.484,7.812,-107.422,0
1594888274.244,-53.711,-20.996,-46.387,-102.051,0
1594888274.248,-85.449,-21.973,-468.262,-97.168,0
1594888274.252,-103.516,-28.809,-326.172,-96.191,0
1594888274.256,-96.680,-27.344,-179.688,-91.797,0
1594888274.268,-91.309,-26.367,-164.062,-85.938,0
1594888274.272,-93.262,-23.926,-259.277,-79.590,0
1594888274.276,-98.145,-26.855,-392.578,-64.941,0
1594888274.280,-95.215,-34.668,-181.641,-68.359,0
1594888274.284,-82.520,-34.668,-143.066,-94.238,0
1594888274.288,-82.520,-34.668,-292.480,-99.121,0
1594888274.292,-95.703,-35.156,-406.738,-86.914,0
1594888274.295,-96.191,-36.621,-638.184,-76.660,0
1594888274.299,-83.984,-37.109,-246.582,-74.219,0
1594888274.303,-94.238,-39.062,153.320,-86.914,0
1594888274.307,-114.746,-38.574,-109.863,-101.562,0
1594888274.311,-116.211,-36.133,-308.105,-101.562,0
1594888274.306,-102.539,-32.715,-133.301,-90.332,0
1594888274.310,-100.586,-34.668,-194.336,-82.031,0
1594888274.314,-106.445,-41.992,-261.719,-75.195,0
1594888274.318,-102.539,-46.875,-290.039,-78.125,0
1594888274.322,-94.238,-45.898,-365.234,-78.613,0
1594888274.326,-89.844,-39.551,-328.613,-74.707,0
1594888274.330,-94.727,-37.109,-367.676,-72.266,0
1594888274.333,-100.586,-36.621,-317.871,-76.172,0
1594888274.337,-90.332,-38.086,-196.777,-93.750,0
1594888274.341,-81.543,-35.156,-399.902,-118.652,0
1594888274.345,-90.332,-36.133,-450.684,-145.996,0
1594888274.349,-96.680,-41.504,-268.066,-161.133,0
1594888274.362,-87.402,-37.109,-137.695,-155.273,0
1594888274.366,-71.777,-34.180,-114.258,-138.672,0
1594888274.370,-65.430,-28.809,-219.238,-125.977,0
1594888274.374,-79.590,-26.855,-219.727,-110.352,0
1594888274.378,-91.797,-28.320,-239.746,-102.051,0
1594888274.382,-81.543,-26.367,-299.805,-103.516,0
1594888274.386,-82.031,-26.367,-417.480,-95.703,0
1594888274.389,-102.051,-29.785,-587.402,-96.191,0
1594888274.393,-100.586,-30.273,-428.711,-109.863,0
1594888274.397,-85.938,-29.297,-77.637,-115.234,0
1594888274.401,-78.125,-29.785,104.004,-120.117,0
1594888274.405,-85.449,-35.156,-210.938,-133.789,0
1594888274.400,-94.727,-42.969,-384.277,-137.695,0
1594888274.404,-88.867,-39.551,-205.566,-136.719,0
1594888274.408,-73.242,-33.691,-168.945,-140.137,2
1594888274.412,-79.102,-30.762,-161.133,-138.672,0
1594888274.416,-102.051,-26.367,-325.684,-135.742,0
1594888274.420,-104.980,-28.320,-378.906,-135.254,0
1594888274.424,-94.238,-28.809,-241.211,-141.602,0
1594888274.427,-91.797,-28.809,-165.527,-151.367,0
1594888274.431,-102.051,-27.832,-257.324,-158.203,0
1594888274.435,-94.727,-27.344,-451.172,-157.715,0
1594888274.439,-76.172,-26.855,-290.039,-163.574,0
1594888274.443,-78.613,-28.809,-151.367,-175.781,0
1594888274.456,-95.215,-34.180,-214.844,-181.641,0
1594888274.460,-97.656,-36.621,-292.969,-193.359,0
1594888274.464,-88.867,-37.598,-376.953,-205.078,0
1594888274.468,-80.078,-34.180,-297.852,-209.473,0
1594888274.472,-74.707,-26.855,-360.352,-222.656,0
1594888274.476,-83.984,-23.926,-422.363,-230.957,0
1594888274.480,-81.543,-27.832,-490.234,-231.445,0
1594888274.483,-68.359,-28.809,-632.812,-228.516,0
1594888274.487,-60.059,-27.832,-458.984,-219.727,0
1594888274.491,-62.012,-27.344,-288.574,-216.797,0
1594888274.495,-64.453,-21.484,-270.996,-216.309,0
1594888274.499,-50.781,-17.090,-254.395,-215.332,0
1594888274.495,-52.734,-18.066,-215.820,-207.520,0
1594888274.499,-72.754,-21.484,-320.801,-203.125,0
1594888274.503,-80.566,-28.809,-360.352,-207.031,0
1594888274.507,-71.289,-27.344,-289.062,-198.242,0
1594888274.511,-74.707,-24.902,-407.715,-177.246,0
1594888274.515,-91.797,-26.855,-412.598,-184.082,0
1594888274.519,-99.609,-31.738,-329.102,-183.594,0
1594888274.522,-91.309,-31.738,-187.012,-166.016,0
1594888274.526,-83.984,-32.227,-214.355,-166.992,0
1594888274.530,-88.379,-33.691,-471.191,-166.504,0
1594888274.534,-95.215,-29.785,-395.508,-158.691,0
1594888274.538,-81.055,-31.250,-264.160,-154.297,0
1594888274.550,-67.383,-30.273,-239.258,-153.320,0
1594888274.554,-78.613,-34.180,-324.219,-144.043,0
1594888274.558,-99.609,-37.109,-368.164,-140.137,0
1594888274.562,-105.469,-31.738,-249.023,-149.414,0
1594888274.566,-90.332,-34.180,-257.324,-159.180,0
1594888274.570,-81.543,-34.180,-315.918,-160.645,0
1594888274.574,-86.426,-29.785,-451.172,-163.574,0
1594888274.577,-89.355,-30.762,-508.789,-164.062,0
1594888274.581,-83.008,-29.785,-280.762,-159.180,0
1594888274.585,-80.078,-29.785,-202.637,-161.133,0
1594888274.589,-83.008,-30.273,-181.641,-158.203,0
1594888274.593,-88.379,-27.832,-462.891,-143.066,0
1594888274.587,-84.473,-27.344,-445.312,-134.766,0
1594888274.591,-80.078,-29.785,-176.270,-139.648,0
1594888274.595,-88.867,-32.715,-230.957,-135.254,0
1594888274.599,-99.121,-34.668,-251.465,-125.000,0
1594888274.603,-99.121,-29.785,-335.449,-104.004,0
1594888274.607,-81.543,-30.273,-270.508,-77.148,0
1594888274.611,-71.289,-30.762,-251.465,-66.406,0
1594888274.614,-84.473,-29.785,-371.582,-57.129,0
1594888274.618,-88.867,-29.785,-281.738,-52.246,0
1594888274.622,-74.707,-27.832,-410.645,-40.527,0
1594888274.626,-73.730,-25.879,-432.617,-25.879,0
1594888274.630,-78.125,-23.438,-222.656,-31.738,0
1594888274.643,-70.312,-28.320,-207.520,-48.340,0
1594888274.647,-58.594,-31.738,-219.727,-62.500,0
1594888274.651,-58.594,-30.762,-241.699,-70.801,0
1594888274.655,-81.055,-26.855,-177.246,-83.496,0
1594888274.659,-103.027,-27.344,-242.188,-88.379,0
1594888274.663,-92.773,-29.297,-255.371,-97.656,0
1594888274.667,-71.777,-25.391,-330.078,-107.910,0
1594888274.670,-74.219,-27.344,-581.543,-96.680,0
1594888274.674,-91.309,-26.855,-405.273,-89.355,0
1594888274.678,-92.773,-23.438,-193.848,-92.285,0
1594888274.682,-79.102,-26.367,-166.504,-85.449,0
1594888274.686,-80.078,-29.297,-270.996,-81.543,0
1594888274.681,-87.891,-28.320,-332.520,-94.238,0
1594888274.685,-85.938,-23.926,-206.543,-107.422,0
1594888274.689,-82.031,-26.367,-235.840,-108.398,0
1594888274.693,-80.078,-32.715,-215.332,-113.770,0
1594888274.697,-88.867,-36.133,-234.863,-116.211,0
1594888274.701,-105.469,-35.156,-296.875,-115.723,0
1594888274.705,-95.703,-31.738,-221.680,-120.117,0
1594888274.708,-76.660,-34.180,-160.645,-119.629,0
1594888274.712,-84.473,-35.645,-256.348,-114.258,0
1594888274.716,-99.121,-41.016,-459.961,-112.305,0
1594888274.720,-88.867,-41.992,-301.758,-104.492,0
1594888274.724,-78.125,-36.133,-110.352,-97.168,0
1594888274.738,-83.984,-36.133,-193.359,-93.262,0
1594888274.742,-93.262,-40.039,-355.469,-83.984,0
1594888274.746,-94.727,-46.875,-371.582,-78.613,0
1594888274.750,-82.031,-41.992,-126.953,-79.590,0
1594888274.754,-76.172,-39.062,-146.973,-82.031,0
1594888274.758,-79.102,-35.645,-335.449,-76.172,0
1594888274.762,-88.379,-30.273,-416.992,-66.895,0
1594888274.765,-87.402,-34.668,-547.363,-61.035,0
1594888274.769,-77.637,-35.156,-329.102,-59.082,0
1594888274.773,-83.984,-33.691,-98.145,-60.059,0
1594888274.777,-94.238,-27.832,-218.750,-55.664,0
1594888274.781,-86.914,-29.297,-278.320,-46.875,0
1594888274.775,-77.637,-34.180,-196.777,-48.340,0
1594888274.779,-80.078,-33.203,-225.098,-54.688,0
1594888274.783,-86.426,-29.297,-281.250,-46.387,0
1594888274.787,-81.055,-26.367,-258.301,-28.320,0
1594888274.791,-78.613,-29.297,-318.359,-36.133,0
1594888274.795,-88.867,-31.250,-346.191,-60.059,0
1594888274.799,-85.449,-30.273,-352.051,-68.848,0
1594888274.802,-88.379,-33.203,-274.414,-81.055,0
1594888274.806,-86.426,-30.762,-203.125,-108.887,0
1594888274.810,-73.730,-27.344,-433.594,-130.859,0
1594888274.814,-82.520,-29.785,-516.602,-138.184,0
1594888274.818,-88.867,-29.297,-300.293,-148.926,0
1594888274.831,-80.078,-29.785,-211.914,-153.809,0
1594888274.835,-78.125,-30.273,-249.512,-152.832,0
1594888274.839,-87.402,-26.855,-271.484,-146.973,0
1594888274.843,-94.238,-29.785,-206.543,-144.531,0
1594888274.847,-91.309,-37.109,-216.797,-144.043,0
1594888274.851,-75.195,-31.250,-211.426,-140.625,0
1594888274.855,-73.242,-24.902,-336.914,-157.715,0
1594888274.858,-93.750,-28.320,-583.496,-166.016,0
1594888274.862,-92.285,-29.785,-445.312,-166.016,0
1594888274.866,-76.172,-29.785,-59.082,-177.246,0
1594888274.870,-80.078,-26.855,52.246,-183.105,0
1594888274.874,-92.773,-27.344,-285.156,-178.223,0
1594888274.868,-94.238,-28.809,-393.555,-166.504,0
1594888274.872,-86.426,-23.926,-125.977,-164.062,0
1594888274.876,-91.797,-25.879,-150.879,-168.457,0
1594888274.880,-108.398,-26.855,-312.012,-170.898,0
1594888274.884,-110.352,-30.762,-387.695,-168.457,0
1594888274.888,-93.750,-34.180,-322.266,-167.969,0
1594888274.892,-80.566,-30.273,-261.230,-169.434,0
1594888274.895,-86.914,-26.855,-215.332,-168.945,0
1594888274.899,-96.191,-24.902,-264.160,-162.109,0
1594888274.903,-91.309,-30.762,-501.465,-156.250,0
1594888274.907,-83.008,-35.156,-354.980,-156.738,0
1594888274.911,-82.031,-29.785,-199.219,-153.320,0
1594888274.925,-96.680,-30.273,-234.375,-151.367,0
1594888274.929,-99.121,-31.250,-342.285,-155.762,0
1594888274.933,-79.590,-24.902,-377.930,-156.738,0
1594888274.937,-73.242,-22.949,-180.664,-163.086,0
1594888274.941,-90.332,-25.391,-250.488,-166.504,0
1594888274.945,-94.238,-27.832,-332.520,-160.645,0
1594888274.949,-78.125,-29.297,-426.758,-156.250,0
1594888274.952,-81.543,-31.250,-583.008,-159.668,0
1594888274.956,-96.680,-32.227,-364.258,-166.016,0
1594888274.960,-105.957,-33.691,-188.477,-164.551,0
1594888274.964,-90.332,-30.273,-179.199,-151.367,0
1594888274.968,-74.707,-28.320,-209.961,-143.066,0
1594888274.982,-84.961,-32.227,-282.715,-144.043,0
1594888274.986,-96.680,-32.227,-295.898,-149.414,0
1594888274.990,-91.797,-29.785,-200.684,-149.902,0
1594888274.994,-83.984,-29.785,-55.664,-153.320,0
1594888274.998,-94.238,-29.297,-225.098,-156.250,0
1594888275.002,-102.539,-26.367,-409.668,-147.461,0
1594888275.006,-96.680,-30.273,-328.125,-151.367,0
1594888275.009,-80.078,-31.250,-125.000,-150.879,0
1594888275.013,-87.402,-30.762,-85.449,-166.016,0
1594888275.017,-101.074,-35.645,-346.191,-169.922,0
1594888275.021,-90.332,-32.715,-352.051,-158.691,0
1594888275.025,-82.031,-29.785,-132.812,-166.504,0
1594888275.018,-75.195,-35.156,-181.152,-159.180,0
1594888275.022,-81.543,-30.273,-354.980,-151.855,0
1594888275.026,-88.867,-22.949,-361.328,-155.762,0
1594888275.030,-79.102,-26.367,-279.297,-150.879,0
1594888275.034,-70.312,-26.855,-134.277,-144.043,0
1594888275.038,-77.148,-30.762,-108.398,-141.113,0
1594888275.042,-96.680,-38.574,-418.457,-144.531,0
1594888275.045,-100.586,-35.645,-423.828,-148.438,0
1594888275.049,-83.496,-33.691,-125.977,-142.090,0
1594888275.053,-78.613,-32.715,-183.594,-145.020,0
1594888275.057,-92.285,-27.344,-269.531,-151.855,0
1594888275.061,-96.680,-27.344,-415.039,-150.391,0
1594888275.056,-94.238,-34.180,-619.629,-150.879,0
1594888275.060,-90.820,-29.785,-283.691,-149.414,0
1594888275.064,-93.750,-27.344,-147.461,-139.160,0
1594888275.068,-96.680,-29.297,-278.809,-134.766,0
1594888275.072,-92.285,-26.855,-250.488,-136.719,0
1594888275.076,-83.984,-32.227,-225.586,-125.488,0
1594888275.080,-82.520,-39.062,-264.160,-114.746,0
1594888275.083,-94.238,-38.574,-269.531,-108.398,0
1594888275.087,-85.938,-36.133,-212.891,-105.469,0
1594888275.091,-74.219,-34.668,-438.965,-119.629,0
1594888275.095,-83.496,-27.832,-452.148,-124.512,0
1594888275.099,-91.309,-25.879,-251.953,-121.582,0
1594888275.112,-85.449,-28.809,-183.594,-122.559,0
1594888275.116,-76.172,-28.320,-159.668,-129.395,0
1594888275.120,-79.102,-29.297,-257.324,-129.395,0
1594888275.124,-86.914,-26.855,-204.102,-124.512,0
1594888275.128,-78.613,-26.855,-180.664,-125.000,0
1594888275.132,-73.730,-27.344,-208.984,-123.535,0
1594888275.136,-78.125,-27.832,-365.723,-126.953,0
1594888275.139,-83.984,-23.926,-553.711,-124.512,0
1594888275.143,-87.402,-19.043,-356.445,-124.512,0
1594888275.147,-83.008,-24.902,-173.828,-125.977,2
1594888275.151,-81.543,-28.809,-194.336,-111.816,0
1594888275.155,-94.727,-31.250,-343.262,-107.910,0
1594888275.150,-102.051,-28.809,-296.875,-117.676,0
1594888275.154,-93.262,-31.250,-218.750,-127.930,0
1594888275.158,-80.566,-30.762,-110.840,-130.371,0
1594888275.162,-82.031,-23.438,26.367,-132.812,0
1594888275.166,-88.379,-24.902,-265.137,-135.742,0
1594888275.170,-86.914,-27.832,-361.816,-138.184,0
1594888275.174,-77.637,-28.809,-250.488,-142.578,0
1594888275.177,-75.684,-31.738,-145.508,-143.555,0
1594888275.181,-90.820,-34.668,-191.406,-145.996,0
1594888275.185,-94.238,-34.180,-455.566,-139.648,0
1594888275.189,-89.844,-27.344,-336.426,-144.043,0
1594888275.193,-94.238,-25.879,-263.184,-156.738,0
1594888275.206,-107.910,-27.832,-316.406,-156.250,0
1594888275.210,-113.281,-24.902,-322.266,-158.691,0
1594888275.214,-95.703,-25.391,-360.352,-154.297,0
1594888275.218,-83.984,-29.785,-162.109,-146.484,0
1594888275.222,-93.750,-32.227,-221.680,-142.090,0
1594888275.226,-103.516,-27.344,-321.777,-133.301,0
1594888275.230,-106.934,-22.949,-398.438,-128.418,0
1594888275.233,-98.145,-27.832,-398.438,-139.160,0
1594888275.237,-91.309,-33.203,-103.516,-143.555,0
1594888275.241,-95.215,-33.691,-222.168,-137.207,0
1594888275.245,-95.703,-33.691,-203.125,-133.789,0
1594888275.249,-92.773,-37.109,-283.691,-124.023,0
1594888275.244,-97.168,-34.668,-406.738,-124.512,0
1594888275.248,-100.098,-27.832,-246.582,-131.348,0
1594888275.252,-93.750,-29.785,-349.121,-130.371,0
1594888275.256,-84.961,-32.227,-323.730,-126.465,0
1594888275.260,-87.402,-34.180,-303.223,-121.582,0
1594888275.264,-85.938,-34.668,-352.539,-117.676,0
1594888275.268,-89.844,-31.250,-322.266,-118.164,0
1594888275.271,-84.961,-31.250,-189.453,-111.816,0
1594888275.275,-72.266,-30.762,-101.074,-99.121,0
1594888275.279,-82.031,-28.320,-366.699,-86.426,0
1594888275.283,-90.820,-27.344,-411.133,-71.777,0
1594888275.287,-85.449,-27.344,-220.703,-61.523,0
1594888275.300,-89.844,-28.320,20.508,-60.547,0
1594888275.304,-99.121,-27.344,-43.945,-54.688,0
1594888275.308,-103.027,-25.879,-336.914,-39.062,0
1594888275.312,-98.145,-29.297,-189.941,-31.738,0
1594888275.316,-86.426,-28.809,-207.520,-35.645,0
1594888275.320,-81.055,-25.391,-305.664,-36.133,0
1594888275.324,-84.473,-31.738,-420.410,-33.203,0
1594888275.327,-91.309,-34.668,-659.180,-40.039,0
1594888275.331,-94.727,-30.273,-383.789,-52.734,0
1594888275.335,-88.867,-30.273,-2.930,-67.871,0
1594888275.339,-94.238,-30.762,-131.836,-68.848,0
1594888275.343,-103.027,-32.715,-244.141,-62.012,0
1594888275.337,-98.633,-39.062,-161.133,-61.035,0
1594888275.341,-93.750,-39.551,-144.043,-68.359,0
1594888275.345,-102.051,-40.527,-216.309,-80.078,0
1594888275.349,-105.469,-43.457,-289.551,-75.195,0
1594888275.353,-100.098,-38.574,-333.984,-58.594,0
1594888275.357,-91.309,-31.250,-231.934,-56.641,0
1594888275.361,-83.496,-36.133,-186.035,-50.293,0
1594888275.364,-91.309,-41.016,-283.203,-43.457,0
1594888275.368,-90.332,-33.203,-245.605,-43.945,0
1594888275.372,-77.637,-30.273,-373.535,-39.062,0
1594888275.376,-83.008,-29.297,-377.930,-48.828,0
1594888275.380,-98.145,-30.762,-191.895,-55.664,0
1594888275.393,-102.051,-33.691,-270.508,-55.176,0
1594888275.397,-93.750,-32.227,-215.332,-67.871,0
1594888275.401,-81.543,-27.832,-185.547,-80.566,0
1594888275.405,-87.891,-29.297,-129.395,-110.840,0
1594888275.409,-95.215,-25.879,-216.309,-127.441,0
1594888275.413,-79.102,-20.020,-268.066,-123.535,0
1594888275.417,-78.125,-23.438,-307.617,-126.465,0
1594888275.420,-89.355,-22.949,-516.113,-137.207,0
1594888275.424,-96.191,-22.461,-385.254,-138.184,0
1594888275.428,-94.727,-24.902,-164.551,-113.281,0
1594888275.432,-82.031,-28.320,-100.586,-107.910,0
1594888275.436,-79.590,-31.250,-369.629,-115.234,0
1594888275.432,-92.773,-29.785,-429.688,-109.375,0
1594888275.436,-87.891,-24.414,-222.168,-103.516,0
1594888275.440,-79.102,-27.832,-213.379,-100.586,0
1594888275.444,-86.914,-30.762,-180.176,-107.422,0
1594888275.448,-100.098,-32.715,-304.688,-107.910,0
1594888275.452,-105.469,-30.273,-367.676,-102.051,0
1594888275.456,-96.680,-27.344,-291.504,-104.004,0
1594888275.459,-92.285,-30.273,-79.590,-90.820,0
1594888275.463,-103.516,-33.691,-140.137,-71.289,0
1594888275.467,-106.445,-35.645,-488.281,-60.059,0
1594888275.471,-102.539,-35.156,-366.211,-57.129,0
1594888275.475,-104.004,-36.133,-208.984,-51.758,0
1594888275.488,-103.516,-35.156,-166.992,-40.527,0
1594888275.492,-105.469,-31.250,-342.285,-33.203,0
1594888275.496,-104.980,-29.785,-369.141,-25.879,0
1594888275.500,-93.262,-34.180,-87.891,-27.832,0
1594888275.504,-86.914,-35.645,-231.934,-26.367,0
1594888275.508,-96.191,-31.738,-349.609,-23.438,0
1594888275.512,-101.562,-34.180,-341.797,-27.344,0
1594888275.515,-83.496,-33.691,-586.914,-24.414,0
1594888275.519,-77.148,-30.762,-464.355,-29.297,0
1594888275.523,-85.938,-32.715,-188.477,-37.109,0
1594888275.527,-77.637,-32.227,-278.320,-42.480,0
1594888275.531,-67.871,-27.344,-312.012,-45.898,0
1594888275.525,-63.477,-25.391,-185.059,-62.012,0
1594888275.529,-75.684,-31.250,-183.105,-80.566,0
1594888275.533,-93.262,-35.645,-224.609,-83.008,0
1594888275.537,-87.402,-30.273,-161.133,-81.055,0
1594888275.541,-82.031,-27.832,-173.340,-79.590,0
1594888275.545,-83.008,-30.762,-281.250,-79.590,0
1594888275.549,-97.168,-29.297,-338.379,-76.660,0
1594888275.552,-106.445,-30.273,-293.945,-72.754,0
1594888275.556,-93.750,-36.621,-226.562,-75.684,0
1594888275.560,-92.285,-34.180,-478.027,-87.891,0
1594888275.564,-103.516,-28.320,-445.801,-104.004,0
1594888275.568,-100.098,-31.738,-178.711,-108.887,0
1594888275.581,-96.680,-31.250,-140.137,-108.887,0
1594888275.585,-105.957,-32.227,-120.605,-112.305,0
1594888275.589,-105.957,-34.180,-271.484,-106.445,0
1594888275.593,-107.910,-36.133,-233.887,-105.957,0
1594888275.597,-100.098,-34.668,-225.586,-109.863,0
1594888275.601,-83.008,-33.691,-246.094,-111.816,0
1594888275.605,-82.520,-34.180,-407.715,-123.047,0
1594888275.608,-90.332,-31.250,-663.086,-129.395,0
1594888275.612,-88.867,-28.320,-415.527,-130.371,0
1594888275.616,-82.520,-27.344,-143.066,-139.648,0
1594888275.620,-79.590,-29.297,-194.824,-142.578,0
1594888275.624,-88.867,-27.832,-363.281,-137.207,0
1594888275.618,-84.473,-27.344,-320.312,-126.953,0
1594888275.622,-71.289,-30.273,-90.332,-122.070,0
1594888275.626,-81.055,-35.156,-61.523,-133.301,0
1594888275.630,-95.703,-37.109,-208.984,-138.184,0
1594888275.634,-96.191,-35.156,-416.016,-123.535,0
1594888275.638,-84.473,-33.691,-331.543,-105.957,0
1594888275.642,-85.449,-29.785,-241.211,-107.910,0
1594888275.645,-93.750,-22.461,-242.188,-101.074,0
1594888275.649,-102.539,-22.949,-254.883,-99.121,0
1594888275.653,-94.238,-23.438,-378.418,-109.375,0
1594888275.657,-79.590,-20.508,-316.895,-104.492,0
1594888275.661,-86.914,-28.320,-223.145,-106.934,0
1594888275.675,-103.027,-27.832,-255.859,-107.422,0
1594888275.679,-118.164,-26.367,-301.758,-114.258,0
1594888275.683,-119.141,-31.738,-283.691,-115.723,0
1594888275.687,-116.699,-32.715,-217.773,-93.262,0
1594888275.691,-132.812,-36.133,-271.484,-79.102,0
1594888275.695,-137.207,-36.133,-288.086,-70.801,0
1594888275.699,-116.699,-33.203,-328.125,-65.430,0
1594888275.702,-107.910,-31.250,-579.590,-58.594,0
1594888275.706,-102.539,-26.855,-452.148,-51.758,0
1594888275.710,-101.074,-23.926,-184.570,-56.641,0
1594888275.714,-89.355,-24.414,-134.277,-48.828,0
1594888275.718,-79.102,-25.391,-141.113,-34.668,0
1594888275.713,-99.609,-30.273,-223.633,-26.367,0
1594888275.717,-120.605,-32.715,-308.105,-15.625,0
1594888275.721,-118.652,-32.715,-268.555,-24.414,0
1594888275.725,-97.656,-34.668,-154.297,-30.762,0
1594888275.729,-104.492,-34.668,-296.387,-31.738,0
1594888275.733,-118.652,-32.715,-426.270,-37.109,0
1594888275.737,-102.051,-32.715,-293.945,-41.992,0
1594888275.740,-87.891,-32.715,-147.461,-47.852,0
1594888275.744,-102.539,-34.180,-84.473,-43.457,0
1594888275.748,-120.117,-35.645,-375.000,-46.387,0
1594888275.752,-114.746,-36.621,-391.602,-56.152,0
1594888275.756,-96.680,-35.156,-193.848,-53.711,0
1594888275.768,-91.797,-34.180,-91.309,-52.246,0
1594888275.772,-102.051,-38.574,-96.680,-44.922,0
1594888275.776,-106.445,-30.762,-326.660,-26.855,0
1594888275.780,-102.051,-23.926,-289.062,-13.184,0
1594888275.784,-98.633,-29.785,-267.578,-14.648,0
1594888275.788,-109.375,-30.762,-240.723,-37.109,0
1594888275.792,-123.047,-31.250,-305.664,-52.734,0
1594888275.795,-113.281,-28.320,-626.953,-53.223,0
1594888275.799,-99.609,-28.809,-441.406,-68.848,0
1594888275.803,-105.469,-33.203,8.301,-88.867,0
1594888275.807,-120.605,-30.762,-124.023,-90.332,0
1594888275.811,-112.793,-26.367,-327.637,-73.730,0
1594888275.806,-95.703,-32.227,-228.027,-58.105,0
1594888275.810,-99.609,-30.273,-163.574,-59.570,0
1594888275.814,-102.051,-21.973,-171.875,-56.641,0
1594888275.818,-102.051,-22.949,-174.805,-60.547,0
1594888275.822,-93.262,-26.367,-200.684,-72.266,0
1594888275.826,-87.891,-31.250,-249.512,-72.754,0
1594888275.830,-95.215,-32.227,-302.734,-77.637,0
1594888275.833,-101.074,-36.621,-288.086,-86.426,0
1594888275.837,-96.191,-34.668,-184.570,-89.355,0
1594888275.841,-83.008,-27.344,-401.855,-89.355,0
1594888275.845,-79.102,-26.367,-423.340,-93.750,0
1594888275.849,-92.773,-28.320,-221.680,-93.750,0
1594888275.862,-89.844,-26.367,-232.422,-82.031,0
1594888275.866,-74.707,-24.902,-224.609,-73.730,0
1594888275.870,-80.566,-30.762,-290.039,-63.965,0
1594888275.874,-93.262,-32.227,-273.438,-47.852,1
1594888275.878,-93.750,-32.227,-226.074,-36.621,0
1594888275.882,-88.867,-27.832,-165.527,-31.250,0
1594888275.886,-93.750,-24.902,-299.316,-36.621,0
1594888275.889,-102.051,-23.926,-620.117,-44.434,0
1594888275.893,-100.098,-21.973,-450.684,-54.688,0
1594888275.897,-90.820,-26.367,-226.562,-66.406,0
1594888275.901,-84.961,-28.320,-299.805,-59.082,0
1594888275.905,-88.379,-27.344,-390.137,-46.875,0
1594888275.900,-100.586,-28.320,-331.543,-37.109,0
1594888275.904,-95.703,-27.344,-179.199,-30.273,0
1594888275.908,-81.055,-26.855,-101.074,-31.738,0
1594888275.912,-91.309,-32.715,-156.738,-47.363,0
1594888275.916,-104.980,-33.691,-273.926,-63.965,0
1594888275.920,-102.051,-30.273,-344.238,-68.848,0
1594888275.924,-87.402,-26.367,-259.766,-57.617,0
1594888275.927,-87.891,-24.414,-174.316,-48.340,0
1594888275.931,-107.422,-24.414,-285.645,-49.316,0
1594888275.935,-106.445,-26.367,-447.266,-43.945,0
1594888275.939,-86.914,-28.320,-320.801,-39.551,0
1594888275.943,-76.172,-21.484,-198.242,-43.457,0
1594888275.956,-96.191,-26.367,-320.801,-52.246,0
1594888275.960,-100.098,-32.227,-381.348,-52.246,0
1594888275.964,-83.496,-26.855,-369.141,-48.340,0
1594888275.968,-70.312,-23.926,-208.496,-55.176,0
1594888275.972,-73.242,-24.414,-293.457,-57.617,0
1594888275.976,-91.797,-26.855,-327.637,-57.617,0
1594888275.980,-93.262,-26.855,-326.660,-58.105,0
1594888275.983,-86.914,-22.949,-586.914,-47.363,0
1594888275.987,-84.961,-21.484,-341.797,-45.410,0
1594888275.991,-97.656,-27.832,-39.551,-48.340,0
1594888275.995,-104.004,-30.762,-128.418,-34.180,0
1594888275.999,-95.703,-33.691,-185.059,-18.555,0
1594888275.993,-96.680,-38.574,-156.738,-19.043,0
1594888275.997,-108.887,-37.598,-193.359,-25.879,0
1594888276.001,-106.934,-34.668,-228.027,-29.297,0
1594888276.005,-86.426,-31.250,-213.867,-23.438,0
1594888276.009,-82.520,-31.738,-374.023,-18.555,0
1594888276.013,-97.656,-31.250,-398.438,-26.367,0
1594888276.017,-97.168,-27.344,-327.637,-25.391,0
1594888276.020,-84.473,-25.391,-225.098,-24.902,0
1594888276.024,-79.102,-30.273,-134.766,-26.367,0
1594888276.028,-81.543,-32.227,-334.961,-10.254,0
1594888276.032,-93.262,-30.762,-412.109,-10.742,0
1594888276.036,-91.309,-30.762,-213.379,-25.391,0
1594888276.050,-74.219,-27.832,0.488,-22.949,0
1594888276.054,-76.660,-24.902,-98.145,-18.066,0
1594888276.058,-91.797,-26.367,-297.363,-17.578,0
1594888276.062,-94.727,-27.832,-208.008,-21.484,0
1594888276.066,-82.520,-22.461,-230.469,-27.832,0
1594888276.070,-81.055,-25.391,-275.879,-27.344,0
1594888276.074,-92.285,-34.180,-357.422,-27.344,0
1594888276.077,-91.309,-37.109,-623.535,-26.855,0
1594888276.081,-83.984,-32.715,-321.777,-21.484,0
1594888276.085,-75.195,-30.273,52.246,-22.949,0
1594888276.089,-82.520,-33.203,-119.141,-23.926,0
1594888276.093,-90.820,-32.715,-328.613,-19.043,0
1594888276.087,-77.637,-31.738,-270.020,-14.160,0
1594888276.091,-75.195,-31.738,-215.332,-15.625,0
1594888276.095,-86.426,-37.598,-250.000,-27.344,0
1594888276.099,-97.656,-43.457,-327.148,-27.344,0
1594888276.103,-104.492,-40.527,-345.215,-32.715,0
1594888276.107,-91.309,-38.574,-254.883,-40.527,0
1594888276.111,-100.098,-40.527,-245.117,-43.457,0
1594888276.114,-116.699,-40.527,-233.887,-36.133,0
1594888276.118,-107.422,-40.039,-230.957,-26.855,0
1594888276.122,-95.703,-34.668,-412.109,-31.250,0
1594888276.126,-84.961,-25.391,-425.293,-29.785,0
1594888276.130,-83.984,-22.949,-112.793,-28.809,0
1594888276.162,-91.309,-26.367,-48.340,-32.227,0
1594888276.166,-82.520,-26.367,-142.578,-38.574,0
1594888276.170,-77.637,-31.738,-119.141,-53.711,0
1594888276.174,-86.914,-31.250,-79.590,-62.500,0
1594888276.178,-97.168,-27.344,-243.164,-60.059,0
1594888276.182,-98.145,-34.180,-276.367,-57.617,0
1594888276.186,-85.449,-32.715,-348.633,-53.711,0
1594888276.189,-87.891,-30.273,-623.535,-52.734,0
1594888276.193,-107.910,-33.203,-509.766,-57.617,0
1594888276.197,-103.027,-25.391,-208.496,-55.664,0
1594888276.201,-86.426,-20.508,-207.031,-47.852,0
1594888276.205,-78.125,-26.855,-279.297,-48.340,0
1594888276.182,-77.148,-28.320,-340.820,-41.504,0
1594888276.186,-81.543,-27.832,-237.305,-31.738,0
1594888276.190,-75.684,-25.391,-94.727,-34.668,0
1594888276.194,-72.754,-21.484,-42.480,-33.203,0
1594888276.198,-87.402,-27.832,-280.273,-30.762,0
1594888276.202,-100.098,-31.738,-331.055,-28.809,0
1594888276.206,-91.309,-32.715,-216.797,-26.367,0
1594888276.209,-86.914,-33.203,-180.176,-36.133,0
1594888276.213,-91.309,-26.367,-232.910,-40.039,0
1594888276.217,-98.145,-26.855,-280.762,-33.691,0
1594888276.221,-101.074,-27.832,-47.363,-27.832,0
1594888276.225,-81.543,-28.320,44.922,-20.996,0
1594888276.237,-83.496,-30.762,-11.719,-21.484,0
1594888276.241,-101.074,-34.180,-189.941,-27.344,0
1594888276.245,-89.355,-38.574,-437.988,-19.043,0
1594888276.249,-71.289,-34.668,-287.598,-20.508,0
1594888276.253,-77.148,-32.227,-207.031,-38.574,0
1594888276.257,-87.891,-36.133,-326.172,-45.410,0
1594888276.261,-92.285,-31.250,-408.203,-43.945,0
1594888276.264,-87.891,-27.832,-577.148,-40.039,0
1594888276.268,-79.590,-29.297,-412.109,-43.945,0
1594888276.272,-89.355,-29.785,-172.363,-54.199,0
1594888276.276,-93.262,-27.832,-228.516,-57.129,0
1594888276.280,-80.078,-30.762,-255.371,-62.012,0
1594888276.275,-72.266,-36.133,-71.289,-66.406,0
1594888276.279,-83.496,-31.738,84.961,-66.895,0
1594888276.283,-106.934,-29.297,6.348,-66.406,0
1594888276.287,-104.492,-23.926,47.852,-64.453,0
1594888276.291,-93.262,-21.973,-38.574,-64.941,0
1594888276.295,-98.145,-26.367,-200.195,-66.406,0
1594888276.299,-100.098,-28.809,-278.809,-65.918,0
1594888276.302,-102.051,-25.879,-222.656,-67.871,0
1594888276.306,-85.449,-26.855,69.336,-65.430,0
1594888276.310,-83.008,-29.297,-238.770,-63.965,0
1594888276.314,-104.980,-31.738,-424.805,-71.289,0
1594888276.318,-108.887,-34.668,-60.059,-73.242,0
1594888276.331,-103.516,-36.621,70.801,-69.824,0
1594888276.335,-95.215,-39.062,-58.594,-68.359,0
1594888276.339,-103.027,-34.668,-271.484,-69.336,0
1594888276.343,-105.469,-31.250,-235.840,-63.477,0
1594888276.347,-86.426,-30.762,-203.125,-61.523,0
1594888276.351,-72.754,-27.344,-247.070,-66.406,0
1594888276.355,-83.984,-32.715,-348.145,-69.824,0
1594888276.358,-90.820,-35.156,-570.801,-65.430,0
1594888276.362,-91.797,-32.715,-417.480,-56.641,0
1594888276.366,-97.168,-32.715,-105.957,-56.641,0
1594888276.370,-96.191,-28.809,1.953,-56.152,0
1594888276.374,-106.934,-30.762,-217.773,-46.387,0
1594888276.368,-98.633,-30.273,-381.348,-37.109,0
1594888276.372,-82.520,-23.438,-112.793,-33.203,0
1594888276.376,-87.891,-25.879,28.809,-38.574,0
1594888276.380,-88.379,-26.367,-170.410,-47.363,0
1594888276.384,-90.332,-29.297,-354.492,-55.176,0
1594888276.388,-87.402,-29.785,-261.719,-55.664,0
1594888276.392,-75.684,-26.367,-240.234,-51.758,0
1594888276.395,-90.820,-29.297,-199.219,-49.316,0
1594888276.399,-116.699,-31.250,-155.273,-41.504,0
1594888276.403,-112.305,-36.621,-328.125,-41.016,0
1594888276.407,-96.191,-37.598,-296.387,-52.246,0
1594888276.411,-98.145,-30.762,-258.301,-60.059,0
1594888276.425,-104.980,-30.273,-274.902,-53.223,0
1594888276.429,-99.121,-33.203,-307.129,-46.875,0
1594888276.433,-81.543,-32.715,-384.766,-46.387,0
1594888276.437,-81.055,-28.809,-219.727,-50.293,0
1594888276.441,-92.773,-29.297,-309.082,-57.617,0
1594888276.445,-85.449,-27.832,-319.824,-53.223,0
1594888276.449,-72.754,-26.367,-288.574,-41.016,0
1594888276.452,-77.148,-27.832,-582.520,-34.180,0
1594888276.456,-97.168,-23.438,-500.488,-36.621,0
1594888276.460,-94.238,-21.973,-179.199,-39.062,0
1594888276.464,-82.520,-32.227,-188.477,-40.527,0
1594888276.468,-83.984,-39.551,-252.930,-46.387,0
1594888276.462,-91.797,-34.668,-162.598,-57.617,0
1594888276.466,-97.656,-30.762,-158.691,-60.059,0
1594888276.470,-95.703,-26.367,-294.922,-63.477,0
1594888276.474,-90.820,-20.508,-125.488,-76.172,0
1594888276.478,-94.727,-27.344,-144.043,-74.707,0
1594888276.482,-111.328,-31.250,-348.145,-69.824,0
1594888276.486,-108.887,-31.738,-296.875,-71.289,0
1594888276.489,-91.797,-33.203,-88.379,-68.848,0
1594888276.493,-87.891,-30.762,-75.684,-70.801,0
1594888276.497,-101.074,-29.785,-457.031,-60.547,0
1594888276.501,-100.586,-30.273,-337.402,-45.410,0
1594888276.505,-84.473,-29.297,-79.102,-49.316,0
1594888276.518,-76.660,-26.855,-150.879,-49.805,0
1594888276.522,-89.355,-27.832,-292.969,-49.316,0
1594888276.526,-96.191,-27.344,-322.754,-57.129,0
1594888276.530,-84.473,-24.414,-181.152,-58.594,0
1594888276.534,-77.637,-26.367,-246.582,-54.688,0
1594888276.538,-91.797,-29.785,-308.594,-58.105,0
1594888276.542,-114.746,-32.715,-399.902,-58.594,0
1594888276.545,-106.445,-36.133,-625.977,-44.922,0
1594888276.549,-88.379,-39.551,-354.492,-41.992,0
1594888276.553,-85.938,-40.527,12.695,-54.688,0
1594888276.557,-95.215,-36.621,-78.613,-60.059,0
1594888276.561,-93.750,-31.250,-258.789,-53.711,0
1594888276.556,-73.730,-31.738,-209.961,-48.340,0
1594888276.560,-77.637,-37.109,-162.109,-57.129,0
1594888276.564,-99.609,-37.109,-297.363,-52.246,0
1594888276.568,-108.398,-28.809,-224.609,-38.574,0
1594888276.572,-94.727,-26.855,-214.844,-33.203,0
1594888276.576,-87.402,-31.250,-278.809,-32.715,0
1594888276.580,-86.914,-31.738,-239.258,-31.250,0
1594888276.583,-92.285,-30.273,-286.133,-32.715,0
1594888276.587,-83.496,-32.227,-226.562,-37.109,0
1594888276.591,-67.383,-31.738,-343.750,-29.297,0
1594888276.595,-75.195,-29.785,-385.742,-25.879,0
1594888276.599,-90.820,-30.762,-189.941,-25.391,0
1594888276.612,-82.031,-30.273,-228.516,-17.578,0
1594888276.616,-67.871,-31.250,-234.375,-28.320,0
1594888276.620,-76.660,-33.203,-215.820,-38.086,0
1594888276.624,-93.750,-36.621,-187.500,-45.898,0
1594888276.628,-93.262,-36.621,-255.859,-42.969,0
1594888276.632,-83.008,-28.320,-232.422,-32.715,0
1594888276.636,-77.637,-27.344,-344.727,-40.039,0
1594888276.639,-82.520,-26.855,-638.184,-43.457,0
1594888276.643,-83.984,-22.461,-445.801,-37.598,0
1594888276.647,-66.406,-20.996,-133.301,-36.133,0
1594888276.651,-60.059,-25.391,-224.609,-42.969,0
1594888276.655,-71.777,-29.297,-395.996,-46.875,0
1594888276.650,-83.008,-28.320,-367.676,-42.969,0
1594888276.654,-67.871,-26.367,-223.145,-38.574,0
1594888276.658,-50.781,-26.367,-149.414,-35.645,0
1594888276.662,-58.594,-28.809,-145.020,-38.086,0
1594888276.666,-65.918,-24.902,-287.109,-39.062,0
1594888276.670,-65.918,-22.461,-328.613,-43.457,0
1594888276.674,-65.918,-26.855,-264.160,-52.734,0
1594888276.677,-71.289,-27.832,-65.918,-59.570,0
1594888276.681,-88.867,-28.809,-105.957,-52.734,0
1594888276.685,-103.516,-30.762,-419.922,-46.387,0
1594888276.689,-98.633,-34.180,-287.109,-42.480,0
1594888276.693,-97.656,-32.715,-162.598,-42.969,0
1594888276.706,-98.633,-29.785,-285.645,-43.945,0
1594888276.710,-100.098,-32.227,-345.215,-36.133,0
1594888276.714,-93.262,-28.809,-312.012,-35.645,0
1594888276.718,-83.496,-26.367,-157.715,-41.992,0
1594888276.722,-92.285,-35.156,-236.328,-37.109,0
1594888276.726,-99.121,-34.180,-355.957,-41.016,0
1594888276.730,-95.215,-26.855,-330.566,-46.387,0
1594888276.733,-92.773,-29.785,-512.207,-40.527,0
1594888276.737,-99.609,-30.273,-398.438,-54.688,0
1594888276.741,-111.816,-29.785,-147.949,-68.359,0
1594888276.745,-111.816,-33.203,-216.797,-66.406,0
1594888276.749,-94.238,-37.598,-242.188,-62.500,0
1594888276.743,-83.984,-37.109,-213.867,-64.941,0
1594888276.747,-89.844,-34.668,-250.977,-66.406,0
1594888276.751,-88.379,-33.203,-162.598,-63.965,0
1594888276.755,-72.266,-30.273,-200.195,-60.059,0
1594888276.759,-62.988,-35.156,-372.559,-54.199,0
1594888276.763,-73.730,-35.645,-360.840,-61.523,0
1594888276.767,-80.566,-30.762,-361.816,-56.152,0
1594888276.770,-71.289,-33.203,-234.375,-47.363,0
1594888276.774,-60.547,-30.762,-161.133,-51.758,0
1594888276.778,-58.105,-29.785,-439.941,-43.457,0
1594888276.782,-64.941,-31.250,-450.684,-41.992,0
1594888276.786,-59.082,-29.297,-121.582,-52.734,0
1594888276.800,-40.527,-27.832,32.715,-45.410,0
1594888276.804,-40.527,-23.438,-136.719,-27.344,0
1594888276.808,-66.895,-29.297,-380.371,-23.926,0
1594888276.812,-76.660,-28.320,-252.441,-21.973,2
1594888276.816,-71.777,-24.414,-208.496,-9.766,0
1594888276.820,-74.707,-28.809,-313.477,-20.020,0
1594888276.824,-87.402,-30.273,-415.527,-22.461,0
1594888276.827,-92.285,-30.762,-640.137,-4.883,0
1594888276.831,-84.473,-29.297,-459.473,2.441,0
1594888276.835,-84.473,-30.273,-23.926,-2.930,0
1594888276.839,-90.820,-33.691,47.852,-11.230,0
1594888276.843,-93.750,-36.621,-224.121,-18.066,0
1594888276.837,-84.473,-39.062,-160.645,-20.020,0
1594888276.841,-78.125,-35.156,53.223,-21.484,0
1594888276.845,-87.891,-32.715,9.277,-35.156,0
1594888276.849,-96.191,-30.762,-70.312,-43.457,0
1594888276.853,-96.680,-28.320,-210.449,-49.316,0
1594888276.857,-83.984,-26.855,-269.043,-53.711,0
1594888276.861,-73.730,-28.320,-230.469,-49.805,0
1594888276.864,-89.844,-28.809,-114.746,-58.105,0
1594888276.868,-83.008,-23.926,-217.285,-51.270,0
1594888276.872,-63.477,-30.762,-461.914,-45.410,0
1594888276.876,-65.430,-34.668,-400.391,-64.453,0
1594888276.880,-70.801,-35.645,-174.316,-71.289,0
1594888276.893,-79.102,-31.738,-156.250,-58.594,0
1594888276.897,-75.684,-25.391,-220.703,-48.828,0
1594888276.901,-68.359,-28.320,-225.586,-47.852,0
1594888276.905,-85.938,-34.180,-69.336,-43.457,0
1594888276.909,-100.586,-34.180,-217.285,-37.598,0
1594888276.913,-88.379,-34.668,-335.449,-42.480,0
1594888276.917,-71.777,-34.180,-326.660,-48.340,0
1594888276.920,-73.242,-28.320,-568.848,-48.828,0
1594888276.924,-95.215,-27.344,-395.508,-47.363,0
1594888276.928,-94.727,-33.203,-117.188,-47.852,0
1594888276.932,-83.984,-33.203,-97.656,-52.734,0
1594888276.936,-98.145,-32.715,-132.812,-54.688,0
1594888276.932,-101.562,-24.902,-292.480,-59.570,0
1594888276.936,-90.820,-19.531,-318.359,-62.988,0
1594888276.940,-79.102,-21.484,-196.289,-56.152,0
1594888276.944,-73.730,-23.926,-146.484,-56.152,0
1594888276.948,-83.496,-26.367,-296.387,-67.383,0
1594888276.952,-83.984,-24.414,-364.258,-86.426,0
1594888276.956,-80.078,-29.297,-219.727,-99.121,0
1594888276.959,-83.008,-38.086,-43.945,-94.727,0
1594888276.963,-82.520,-37.598,-144.531,-89.355,0
1594888276.967,-98.633,-33.203,-487.793,-91.309,0
1594888276.971,-98.633,-30.762,-377.930,-91.309,0
1594888276.975,-90.820,-29.297,-36.133,-89.844,0
1594888276.987,-96.191,-34.668,47.852,-91.309,0
1594888276.991,-104.004,-36.133,-153.809,-99.609,0
1594888276.995,-99.121,-28.809,-282.227,-101.562,0
1594888276.999,-83.496,-20.508,-166.992,-105.957,0
1594888277.003,-83.984,-21.484,-247.070,-105.957,0
1594888277.007,-90.820,-25.391,-312.988,-102.539,0
1594888277.011,-90.820,-28.320,-422.363,-97.168,0
1594888277.014,-83.984,-33.691,-546.875,-77.148,0
1594888277.018,-75.684,-30.273,-333.008,-70.801,0
1594888277.022,-77.148,-25.879,-216.797,-65.430,0
1594888277.026,-86.914,-28.809,-172.363,-57.617,0
1594888277.030,-85.938,-31.738,-306.641,-52.246,0
1594888277.025,-74.219,-28.809,-400.391,-53.711,0
1594888277.029,-82.520,-23.438,-227.539,-59.082,0
1594888277.033,-102.539,-25.391,-230.957,-62.500,0
1594888277.037,-98.145,-30.273,-230.469,-82.031,0
1594888277.041,-84.473,-30.273,-233.398,-99.609,0
1594888277.045,-85.449,-30.273,-230.469,-107.422,0
1594888277.049,-91.309,-25.879,-371.582,-101.562,0
1594888277.052,-85.938,-24.902,-360.840,-94.727,0
1594888277.056,-77.637,-30.762,-150.879,-106.934,0
1594888277.060,-84.473,-32.227,-398.438,-117.676,0
1594888277.064,-94.238,-27.832,-451.172,-114.258,0
1594888277.068,-96.191,-30.273,-199.219,-103.516,0
1594888277.081,-94.727,-32.227,-30.762,-91.309,0
1594888277.085,-90.820,-25.391,12.695,-96.191,0
1594888277.089,-99.609,-23.926,-177.246,-109.375,0
1594888277.093,-112.305,-28.809,-289.551,-103.516,0
1594888277.097,-108.398,-37.109,-245.117,-103.516,0
1594888277.101,-103.516,-44.922,-176.270,-109.863,0
1594888277.105,-105.469,-42.480,-348.633,-107.422,0
1594888277.108,-109.375,-37.109,-581.055,-99.609,0
1594888277.112,-99.121,-33.691,-389.648,-100.586,0
1594888277.116,-85.938,-33.203,-255.371,-114.258,0
1594888277.120,-83.008,-33.203,-256.348,-124.023,0
1594888277.124,-93.262,-34.180,-393.555,-122.070,0
1594888277.118,-101.074,-32.715,-412.598,-115.723,0
1594888277.122,-86.426,-28.809,-135.254,-114.258,0
1594888277.126,-83.496,-27.832,-200.684,-115.723,0
1594888277.130,-94.238,-30.273,-275.879,-120.117,0
1594888277.134,-101.074,-33.691,-307.129,-118.652,0
1594888277.138,-97.168,-34.668,-308.594,-120.117,0
1594888277.142,-79.590,-33.203,-279.785,-123.047,0
1594888277.145,-76.660,-29.297,-212.891,-129.883,0
1594888277.149,-85.449,-24.902,-230.469,-132.324,0
1594888277.153,-81.543,-29.785,-450.684,-126.465,0
1594888277.157,-72.754,-31.250,-375.977,-127.930,0
1594888277.161,-80.078,-26.367,-118.164,-114.258,0
1594888277.175,-95.215,-28.809,-234.863,-93.750,0
1594888277.179,-96.191,-27.344,-384.766,-90.820,0
1594888277.183,-82.520,-24.414,-274.902,-92.285,0
1594888277.187,-81.543,-22.461,-176.270,-91.309,0
1594888277.191,-96.680,-22.949,-298.340,-92.285,0
1594888277.195,-97.168,-23.438,-331.543,-86.914,0
1594888277.199,-82.520,-23.926,-290.039,-85.449,0
1594888277.202,-83.496,-26.367,-521.973,-91.309,0
1594888277.206,-99.121,-29.297,-478.027,-96.680,0
1594888277.210,-91.797,-32.227,-196.777,-91.797,0
1594888277.214,-74.707,-29.297,-20.996,-91.797,0
1594888277.218,-66.895,-30.762,-71.777,-91.797,0
1594888277.212,-73.730,-31.738,-204.590,-102.539,0
1594888277.216,-87.891,-32.227,-250.000,-112.793,0
1594888277.220,-89.355,-34.180,-229.004,-104.980,0
1594888277.224,-67.871,-31.250,-166.992,-104.492,0
1594888277.228,-64.453,-33.203,-289.062,-111.328,0
1594888277.232,-82.031,-32.715,-375.000,-105.957,0
1594888277.236,-76.172,-26.367,-292.480,-93.262,0
1594888277.239,-58.105,-27.344,-218.262,-89.844,0
1594888277.243,-61.523,-32.715,-218.262,-82.520,0
1594888277.247,-77.637,-34.180,-462.402,-74.707,0
1594888277.251,-83.008,-37.109,-418.457,-82.520,0
1594888277.255,-66.406,-38.574,-151.367,-90.332,0
1594888277.268,-63.477,-38.086,-130.371,-97.656,0
1594888277.272,-79.102,-36.133,-225.098,-102.051,0
1594888277.276,-93.262,-37.598,-280.273,-111.816,0
1594888277.280,-90.820,-38.086,-30.762,-124.512,0
1594888277.284,-73.242,-33.691,-69.336,-125.000,0
1594888277.288,-81.543,-32.227,-329.102,-123.535,0
1594888277.292,-88.379,-31.738,-360.352,-131.836,0
1594888277.295,-92.773,-34.180,-541.504,-137.207,0
1594888277.299,-83.984,-32.227,-328.613,-135.254,0
1594888277.303,-85.938,-29.785,-79.590,-135.254,0
1594888277.307,-104.492,-33.691,-228.027,-131.836,0
1594888277.311,-94.727,-36.621,-333.984,-117.676,0
1594888277.306,-73.242,-39.551,-132.324,-102.539,0
1594888277.310,-78.125,-41.504,-23.926,-97.656,0
1594888277.314,-94.238,-34.180,-259.766,-83.008,0
1594888277.318,-92.773,-25.391,-220.703,-72.754,0
1594888277.322,-81.055,-23.438,-214.844,-77.637,0
1594888277.326,-79.102,-25.879,-274.902,-83.008,0
1594888277.330,-89.355,-27.832,-287.109,-78.613,0
1594888277.333,-93.262,-30.273,-254.395,-75.684,0
1594888277.337,-82.031,-33.691,-223.633,-75.195,0
1594888277.341,-66.406,-29.785,-390.137,-68.848,0
1594888277.345,-73.730,-25.391,-476.562,-79.102,0
1594888277.349,-86.426,-26.367,-285.645,-96.191,0
1594888277.362,-81.055,-25.879,-222.656,-91.797,0
1594888277.366,-81.055,-24.414,-274.414,-85.449,0
1594888277.370,-82.520,-28.320,-287.598,-71.289,0
1594888277.374,-86.426,-27.344,-248.047,-58.105,0
1594888277.378,-83.008,-26.855,-265.625,-55.664,0
1594888277.382,-61.523,-25.391,-263.672,-48.828,0
1594888277.386,-61.035,-24.902,-359.863,-49.316,0
1594888277.389,-76.660,-31.250,-608.887,-58.105,0
1594888277.393,-81.543,-30.762,-449.707,-61.035,0
1594888277.397,-76.660,-22.949,-149.902,-51.270,0
1594888277.401,-73.730,-20.996,-182.129,-44.922,0
1594888277.405,-87.402,-30.273,-290.527,-47.852,0
1594888277.401,-91.797,-32.715,-275.391,-52.246,0
1594888277.405,-78.125,-28.809,-171.387,-56.641,0
1594888277.409,-69.824,-29.785,7.324,-61.523,0
1594888277.413,-78.125,-31.250,-53.711,-66.406,0
1594888277.417,-95.215,-34.668,-347.656,-71.777,0
1594888277.421,-96.680,-37.109,-335.449,-83.008,0
1594888277.425,-81.543,-31.250,-248.535,-86.426,0
1594888277.428,-80.078,-32.227,-200.195,-78.613,0
1594888277.432,-93.262,-33.691,-280.273,-84.473,0
1594888277.436,-93.262,-28.809,-449.219,-94.727,0
1594888277.440,-71.777,-31.250,-257.812,-90.332,0
1594888277.444,-65.918,-29.785,15.625,-85.938,0
1594888277.456,-75.195,-28.320,-26.367,-83.496,0
1594888277.460,-78.613,-26.855,-224.121,-69.336,0
1594888277.464,-76.660,-32.227,-267.090,-64.453,0
1594888277.468,-60.547,-34.668,14.160,-73.242,0
1594888277.472,-65.918,-28.809,-152.344,-81.543,0
1594888277.476,-96.191,-32.715,-408.691,-93.750,0
1594888277.480,-92.773,-34.180,-320.801,-100.098,0
1594888277.483,-69.824,-31.738,-499.023,-88.867,0
1594888277.487,-74.707,-28.320,-437.500,-86.914,0
1594888277.491,-90.332,-31.738,-222.168,-81.055,0
1594888277.495,-82.031,-31.250,-212.402,-69.824,0
1594888277.499,-66.406,-24.414,-199.219,-65.430,0
1594888277.493,-67.871,-22.949,-224.121,-75.195,0
1594888277.497,-75.195,-25.391,-222.656,-84.473,0
1594888277.501,-77.148,-28.320,-205.078,-81.543,0
1594888277.505,-66.895,-27.832,-175.781,-84.473,0
1594888277.509,-63.477,-32.227,-270.996,-88.379,0
1594888277.513,-78.613,-33.203,-338.867,-89.844,0
1594888277.517,-87.402,-31.250,-327.148,-85.449,0
1594888277.520,-76.660,-37.598,-282.227,-74.219,0
1594888277.524,-72.266,-37.598,-165.039,-64.941,0
1594888277.528,-79.590,-35.156,-400.879,-64.941,0
1594888277.532,-90.332,-32.715,-463.379,-73.242,0
1594888277.536,-91.797,-31.738,-193.848,-75.684,0
1594888277.550,-76.660,-33.203,-42.480,-73.730,0
1594888277.554,-71.289,-30.762,-133.789,-74.707,0
1594888277.558,-81.543,-24.414,-344.727,-77.148,0
1594888277.562,-81.543,-20.020,-202.637,-73.242,0
1594888277.566,-72.266,-20.996,-172.363,-64.453,0
1594888277.570,-67.871,-25.391,-241.211,-66.895,0
1594888277.574,-85.938,-26.855,-382.324,-72.266,0
1594888277.577,-103.027,-26.855,-593.750,-64.453,0
1594888277.581,-83.008,-23.438,-366.699,-58.594,2
1594888277.585,-62.500,-20.508,3.418,-59.082,0
1594888277.589,-70.312,-25.391,13.184,-60.547,0
1594888277.593,-83.008,-24.414,-313.965,-62.012,0
1594888277.587,-78.125,-22.461,-354.980,-57.617,0
1594888277.591,-67.871,-26.367,-122.070,-59.082,0
1594888277.595,-76.660,-25.879,-155.762,-55.176,0
1594888277.599,-92.285,-25.391,-248.535,-49.805,0
1594888277.603,-86.914,-29.297,-301.758,-46.387,0
1594888277.607,-78.613,-28.809,-177.734,-46.387,0
1594888277.611,-77.148,-31.738,-183.105,-52.246,0
1594888277.614,-86.914,-35.645,-209.961,-63.965,0
1594888277.618,-96.680,-28.320,-202.148,-62.988,0
1594888277.622,-79.590,-30.273,-365.234,-61.035,0
1594888277.626,-80.566,-32.227,-404.785,-73.730,0
1594888277.630,-94.727,-31.738,-279.785,-75.195,0
1594888277.643,-93.750,-34.180,-187.012,-72.266,0
1594888277.647,-87.891,-32.227,-180.664,-72.754,0
1594888277.651,-78.125,-31.250,-316.406,-71.289,0
1594888277.655,-73.730,-32.715,-288.574,-67.383,0
1594888277.659,-80.566,-28.809,-248.535,-54.688,0
1594888277.663,-76.172,-26.367,-295.898,-62.012,0
1594888277.667,-60.059,-31.738,-316.406,-54.688,0
1594888277.670,-62.988,-30.273,-562.988,-33.691,0
1594888277.674,-84.473,-33.203,-483.887,-39.062,0
1594888277.678,-89.844,-35.156,-213.867,-42.969,0
1594888277.682,-87.891,-33.203,-159.180,-47.852,0
1594888277.686,-90.820,-31.738,-209.961,-56.641,0
1594888277.682,-87.891,-31.250,-270.996,-58.594,0
1594888277.686,-82.520,-30.273,-307.129,-50.781,0
1594888277.690,-69.824,-29.297,-258.301,-48.340,0
1594888277.694,-65.430,-25.391,-199.219,-48.340,0
1594888277.698,-71.289,-23.926,-330.078,-44.434,0
1594888277.702,-77.637,-32.715,-350.586,-42.480,0
1594888277.706,-77.148,-39.551,-261.719,-41.016,0
1594888277.709,-66.895,-36.133,-103.516,-35.645,0
1594888277.713,-70.801,-34.668,-155.273,-40.527,0
1594888277.717,-79.102,-35.645,-478.027,-46.387,0
1594888277.721,-71.289,-31.250,-463.867,-48.828,0
1594888277.725,-64.453,-32.715,-93.750,-49.805,0
1594888277.737,-62.988,-29.785,-42.480,-35.645,0
1594888277.741,-78.613,-27.344,-325.195,-34.180,0
1594888277.745,-95.215,-27.344,-277.832,-38.574,0
1594888277.749,-90.820,-28.320,-139.648,-29.785,0
1594888277.753,-89.844,-30.762,-241.699,-29.785,0
1594888277.757,-92.285,-29.297,-326.172,-29.297,0
1594888277.761,-87.402,-23.926,-407.715,-31.250,0
1594888277.764,-68.359,-20.020,-555.664,-22.949,0
1594888277.768,-59.082,-25.391,-423.340,-19.043,0
1594888277.772,-68.848,-26.855,-180.664,-38.086,0
1594888277.776,-71.289,-24.414,-182.129,-32.227,0
1594888277.780,-64.453,-27.832,-236.816,-24.902,0
1594888277.775,-67.383,-27.344,-231.934,-30.273,0
1594888277.779,-76.660,-22.461,-213.379,-27.344,0
1594888277.783,-87.891,-22.949,-194.824,-32.715,0
1594888277.787,-86.914,-21.973,-187.988,-37.109,0
1594888277.791,-75.684,-23.926,-244.141,-42.480,0
1594888277.795,-74.707,-28.809,-282.715,-43.945,0
1594888277.799,-85.449,-27.832,-291.504,-41.016,0
1594888277.802,-83.008,-30.762,-281.250,-46.387,0
1594888277.806,-73.242,-33.203,-194.336,-51.270,0
1594888277.810,-82.520,-32.227,-419.922,-50.293,0
1594888277.814,-95.215,-35.156,-484.863,-42.969,0
1594888277.818,-97.168,-37.598,-234.375,-41.016,0
1594888277.831,-84.961,-33.691,-50.293,-44.922,0
1594888277.835,-75.195,-31.738,-129.395,-41.504,0
1594888277.839,-81.055,-37.109,-335.449,-39.062,0
1594888277.843,-97.168,-37.109,-239.258,-46.875,0
1594888277.847,-93.750,-34.180,-250.977,-52.734,0
1594888277.851,-80.078,-36.133,-289.551,-52.246,0
1594888277.855,-87.891,-36.621,-380.859,-55.176,0
1594888277.858,-95.215,-36.133,-636.230,-57.129,0
1594888277.862,-82.520,-32.715,-395.996,-57.129,0
1594888277.866,-73.242,-31.738,-143.066,-49.805,0
1594888277.870,-71.777,-32.715,-276.367,-45.898,0
1594888277.874,-76.172,-31.250,-437.012,-52.734,0
1594888277.868,-68.848,-26.855,-387.695,-60.547,0
1594888277.872,-42.969,-22.461,-186.035,-57.129,0
1594888277.876,-43.457,-22.949,-173.340,-58.105,0
1594888277.880,-53.711,-27.832,-52.734,-57.617,0
1594888277.884,-63.477,-28.809,-242.676,-42.969,0
1594888277.888,-71.777,-29.297,-361.816,-34.668,0
1594888277.892,-82.031,-38.086,-262.207,-43.945,0
1594888277.895,-109.863,-37.109,-217.285,-53.223,0
1594888277.899,-127.441,-31.250,-183.105,-46.875,0
1594888277.903,-119.629,-37.109,-363.281,-41.992,0
1594888277.907,-102.539,-38.574,-260.742,-42.969,0
1594888277.911,-103.027,-28.809,91.309,-41.504,0
1594888277.925,-110.840,-27.344,-106.445,-42.969,0
1594888277.929,-95.703,-31.250,-329.590,-42.969,0
1594888277.933,-82.031,-29.785,-252.930,-41.992,0
1594888277.937,-83.496,-30.762,-148.438,-41.016,0
1594888277.941,-91.797,-33.203,-221.680,-36.621,0
1594888277.945,-93.262,-31.738,-261.230,-37.109,0
1594888277.949,-85.938,-34.180,-232.422,-32.715,0
1594888277.952,-78.613,-49.316,-465.332,-32.715,0
1594888277.956,-83.984,-50.293,-357.910,-47.363,0
1594888277.960,-85.449,-37.598,-175.781,-55.664,0
1594888277.964,-75.684,-39.551,-176.758,-49.805,0
1594888277.968,-70.801,-27.832,-240.234,-42.480,0
1594888277.962,-64.453,-18.066,-285.156,-39.551,0
1594888277.966,-71.777,-24.902,-219.238,-32.715,0
1594888277.970,-75.684,-24.414,-222.168,-20.996,0
1594888277.974,-58.594,-27.832,-205.566,-19.531,0
1594888277.978,-63.965,-35.156,-378.906,-23.438,0
1594888277.982,-77.637,-33.203,-453.613,-19.043,0
1594888277.986,-73.242,-28.320,-232.910,-12.207,0
1594888277.989,-66.895,-33.203,27.344,-14.648,0
1594888277.993,-72.266,-36.621,25.879,-20.020,0
1594888277.997,-86.426,-38.086,-381.836,-13.672,0
1594888278.001,-99.121,-37.598,-409.668,-2.441,0
1594888278.005,-92.773,-32.227,-146.484,-18.066,0
1594888278.018,-83.008,-28.809,-65.430,-21.484,0
1594888278.022,-95.703,-31.738,-189.453,-6.836,0
1594888278.026,-96.680,-26.855,-322.754,-2.930,0
1594888278.030,-86.426,-29.297,-178.711,1.953,0
1594888278.034,-79.102,-34.668,-147.949,12.207,0
1594888278.038,-83.984,-23.926,-337.891,14.648,0
1594888278.042,-95.215,-26.367,-418.945,1.465,0
1594888278.045,-83.008,-33.691,-562.988,7.812,0
1594888278.049,-65.918,-31.738,-426.758,13.672,0
1594888278.053,-75.195,-32.227,-183.594,-0.977,0
1594888278.057,-86.426,-30.273,-270.996,-1.953,0
1594888278.061,-83.496,-30.273,-383.789,1.465,0
1594888278.056,-76.660,-29.785,-242.188,-5.371,0
1594888278.060,-82.031,-26.855,-67.871,-12.207,0
1594888278.064,-93.262,-23.926,-247.070,-21.973,0
1594888278.068,-95.215,-22.949,-267.578,-24.414,0
1594888278.072,-85.938,-24.414,-266.602,-20.508,0
1594888278.076,-80.566,-24.902,-301.270,-23.926,0
1594888278.080,-93.262,-23.926,-347.656,-30.273,0
1594888278.083,-104.004,-24.902,-280.762,-35.156,0
1594888278.087,-89.844,-32.715,-209.473,-38.086,0
1594888278.091,-80.566,-34.180,-446.777,-36.621,0
1594888278.095,-83.984,-34.180,-503.418,-32.715,0
1594888278.099,-84.961,-38.086,-317.383,-31.738,0
1594888278.112,-81.543,-36.621,-243.164,-29.297,0
1594888278.116,-73.730,-31.250,-245.605,-30.273,0
1594888278.120,-81.055,-26.367,-259.766,-32.227,0
1594888278.124,-94.727,-31.250,-173.828,-23.438,0
1594888278.128,-96.680,-34.180,-202.637,-16.113,0
1594888278.132,-84.961,-29.785,-250.000,-15.137,0
1594888278.136,-77.148,-25.879,-317.383,-20.508,0
1594888278.139,-87.891,-31.250,-590.332,-19.531,0
1594888278.143,-95.703,-34.180,-451.660,-18.066,0
1594888278.147,-80.566,-30.273,-107.422,-30.273,0
1594888278.151,-69.824,-23.438,-107.422,-31.738,0
1594888278.155,-80.566,-25.391,-298.340,-32.227,0
1594888278.151,-91.797,-32.227,-355.469,-37.109,0
1594888278.155,-85.449,-24.414,-213.867,-41.992,0
1594888278.159,-75.195,-20.508,-108.398,-48.340,0
1594888278.163,-81.055,-27.832,-167.969,-45.898,0
1594888278.167,-93.262,-32.227,-432.617,-38.574,0
1594888278.171,-90.332,-28.809,-363.770,-35.645,0
1594888278.175,-83.496,-24.902,-178.223,-27.832,0
1594888278.178,-82.031,-26.367,-201.660,-27.344,0
1594888278.182,-90.332,-28.320,-245.605,-28.320,0
1594888278.186,-90.332,-30.762,-449.219,-20.508,0
1594888278.190,-75.195,-34.180,-349.121,-22.949,0
1594888278.194,-70.312,-31.250,-132.324,-21.484,0
1594888278.206,-82.520,-31.738,-229.980,-10.742,0
1594888278.210,-79.590,-30.762,-249.023,-6.836,0
1594888278.214,-57.129,-30.273,-319.824,-6.348,0
1594888278.218,-59.082,-36.133,-243.164,-12.207,0
1594888278.222,-89.355,-36.621,-92.773,-32.227,0
1594888278.226,-93.262,-37.598,-266.602,-34.180,0
1594888278.230,-71.289,-36.133,-326.172,-20.508,0
1594888278.233,-60.547,-35.156,-484.863,-20.020,0
1594888278.237,-73.242,-34.668,-440.918,-29.785,0
1594888278.241,-89.844,-31.738,-204.590,-38.086,0
1594888278.245,-85.449,-33.203,-197.266,-41.016,0
1594888278.249,-68.359,-41.504,-215.332,-33.691,0
1594888278.244,-56.641,-41.504,-173.340,-26.367,0
1594888278.248,-68.848,-34.180,-178.223,-32.227,0
1594888278.252,-72.266,-34.180,-245.117,-32.227,0
1594888278.256,-71.777,-38.086,-68.359,-24.902,0
1594888278.260,-81.055,-37.109,-186.523,-13.184,0
1594888278.264,-93.750,-37.109,-429.688,-28.809,0
1594888278.268,-93.262,-37.598,-372.559,-40.039,0
1594888278.271,-85.938,-34.180,-241.211,-29.785,0
1594888278.275,-84.473,-31.738,-117.188,-36.621,0
1594888278.279,-85.449,-33.691,-412.109,-40.527,0
1594888278.283,-94.727,-37.598,-594.238,-39.062,0
1594888278.287,-93.750,-34.668,-305.176,-46.387,0
1594888278.300,-77.148,-38.086,-216.797,-46.875,0
1594888278.304,-69.336,-37.598,-315.430,-41.016,0
1594888278.308,-75.195,-32.715,-387.207,-30.273,0
1594888278.312,-65.918,-32.715,-293.457,-21.973,0
1594888278.316,-57.129,-33.203,-275.879,-17.578,0
1594888278.320,-74.219,-28.809,-338.379,-18.066,0
1594888278.324,-83.496,-28.809,-399.414,-20.996,0
1594888278.327,-79.590,-33.203,-572.266,-20.508,0
1594888278.331,-78.125,-32.715,-439.453,-29.785,0
1594888278.335,-82.031,-35.156,-222.168,-45.410,0
1594888278.339,-84.473,-35.156,-188.477,-48.828,0
1594888278.343,-91.797,-37.598,-433.594,-51.270,0
1594888278.337,-84.961,-40.527,-473.633,-43.457,0
1594888278.341,-75.684,-34.180,-199.707,-36.133,0
1594888278.345,-82.031,-33.203,-266.113,-39.062,0
1594888278.349,-91.309,-32.715,-321.777,-34.180,0
1594888278.353,-81.543,-29.297,-325.195,-26.367,0
1594888278.357,-68.848,-24.902,-296.875,-30.762,0
1594888278.361,-80.566,-31.250,-290.039,-31.250,0
1594888278.364,-91.309,-41.016,-295.898,-29.785,0
1594888278.368,-88.867,-40.527,-252.930,-19.531,0
1594888278.372,-81.543,-38.086,-414.062,-13.184,0
1594888278.376,-94.238,-39.062,-366.211,-38.086,0
1594888278.380,-106.934,-36.133,-259.766,-48.340,0
1594888278.393,-101.562,-27.344,-259.277,-43.945,0
1594888278.397,-83.496,-27.832,-249.023,-47.363,0
1594888278.401,-84.473,-30.273,-267.090,-46.387,0
1594888278.405,-88.379,-28.320,-222.168,-42.969,0
1594888278.409,-85.449,-29.297,-341.797,-39.551,0
1594888278.413,-88.379,-38.574,-324.219,-41.016,0
1594888278.417,-83.496,-37.598,-269.531,-46.875,2
1594888278.420,-82.520,-35.645,-510.742,-40.039,0
1594888278.424,-90.820,-41.992,-451.172,-38.574,0
1594888278.428,-92.773,-39.551,-55.176,-50.293,0
1594888278.432,-88.379,-35.645,45.898,-57.617,0
1594888278.436,-81.543,-39.551,-144.043,-57.617,0
1594888278.431,-90.332,-43.457,-257.812,-58.594,0
1594888278.435,-94.727,-41.504,-234.375,-58.105,0
1594888278.439,-75.195,-36.621,-281.738,-50.781,0
1594888278.443,-66.406,-35.645,-285.156,-55.664,0
1594888278.447,-76.660,-35.156,-315.430,-55.664,0
1594888278.451,-86.914,-35.156,-283.203,-52.246,0
1594888278.455,-83.008,-32.715,-41.992,-49.805,0
1594888278.458,-75.195,-24.414,89.355,-41.016,0
1594888278.462,-78.613,-23.926,96.191,-35.156,0
1594888278.466,-82.031,-31.250,-255.371,-28.320,0
1594888278.470,-73.242,-30.762,-353.516,-24.414,0
1594888278.474,-65.430,-26.855,14.648,-19.043,0
1594888278.487,-83.984,-29.785,82.031,-6.348,0
1594888278.491,-95.703,-29.297,-135.742,5.859,0
1594888278.495,-84.961,-28.809,-263.672,19.043,0
1594888278.499,-76.660,-29.785,-131.348,24.414,0
1594888278.503,-77.637,-30.273,-131.836,18.555,0
1594888278.507,-89.355,-32.227,-298.340,9.766,0
1594888278.511,-96.191,-32.227,-386.230,12.207,0
1594888278.514,-85.449,-34.180,-539.062,22.461,0
1594888278.518,-81.055,-28.809,-372.559,9.766,0
1594888278.522,-87.891,-26.367,-116.699,1.953,0
1594888278.526,-95.215,-29.297,-199.707,11.230,0
1594888278.530,-93.262,-33.691,-261.719,0.977,0
1594888278.525,-86.426,-38.086,-105.957,-8.789,0
1594888278.529,-90.332,-30.273,-61.035,-18.555,0
1594888278.533,-89.844,-32.227,-362.305,-19.531,0
1594888278.537,-74.707,-40.039,-304.199,-8.301,0
1594888278.541,-58.594,-36.133,-344.238,-0.977,0
1594888278.545,-61.035,-33.203,-432.617,2.930,0
1594888278.549,-80.566,-27.344,-361.328,-10.254,0
1594888278.552,-84.961,-28.809,-318.359,-12.207,0
1594888278.556,-67.383,-35.156,-277.832,-1.953,0
1594888278.560,-70.312,-33.203,-437.012,-1.465,0
1594888278.564,-89.844,-32.715,-511.719,-8.301,0
1594888278.568,-82.031,-25.879,-356.445,-18.555,0
1594888278.581,-65.430,-24.902,-270.996,-19.043,0
1594888278.585,-54.199,-28.809,-268.066,-15.625,0
1594888278.589,-60.059,-27.344,-296.875,-19.043,0
1594888278.593,-70.801,-21.973,-291.504,-14.648,0
1594888278.597,-61.035,-21.973,-385.254,-5.859,0
1594888278.601,-54.688,-25.391,-320.312,-0.977,0
1594888278.605,-68.848,-23.438,-334.473,-4.883,0
1594888278.608,-111.816,-29.785,-617.676,-13.184,0
1594888278.612,-116.699,-36.621,-482.422,-3.418,0
1594888278.616,-91.309,-33.691,-135.742,0.488,0
1594888278.620,-96.191,-35.645,-51.758,-6.836,0
1594888278.624,-107.910,-40.039,-278.320,-13.184,0
1594888278.619,-98.633,-39.062,-378.418,-16.602,0
1594888278.623,-87.891,-33.203,-124.023,-25.879,0
1594888278.627,-87.891,-27.344,-63.477,-34.668,0
1594888278.631,-92.285,-27.344,-194.824,-31.738,0
1594888278.635,-92.773,-26.855,-291.504,-31.250,0
1594888278.639,-78.125,-27.832,-250.977,-30.762,0
1594888278.643,-68.848,-31.738,-245.605,-36.133,0
1594888278.646,-69.336,-33.203,-234.863,-35.156,0
1594888278.650,-75.684,-30.273,-273.438,-28.320,0
1594888278.654,-71.289,-27.344,-484.375,-29.785,0
1594888278.658,-57.129,-24.902,-398.438,-26.855,0
1594888278.662,-63.477,-26.855,-163.574,-30.273,0
1594888278.676,-73.730,-29.785,-254.883,-20.508,0
1594888278.680,-73.730,-34.180,-332.520,-17.090,0
1594888278.684,-68.359,-31.738,-244.141,-13.184,0
1594888278.688,-78.125,-28.809,-148.926,-4.395,0
1594888278.692,-102.051,-35.156,-280.762,-18.066,0
1594888278.696,-104.980,-35.645,-317.383,-26.855,0
1594888278.700,-90.820,-29.785,-319.336,-19.531,0
1594888278.703,-94.727,-33.691,-560.547,-17.090,0
1594888278.707,-91.797,-34.668,-453.613,-19.531,0
1594888278.711,-78.125,-22.949,-184.082,-21.484,0
1594888278.715,-64.941,-19.531,-61.035,-24.902,0
1594888278.719,-53.223,-22.949,-114.258,-23.438,0
1594888278.712,-62.012,-17.090,-215.332,-17.578,0
1594888278.716,-72.754,-23.926,-197.266,-14.648,0
1594888278.720,-75.195,-31.250,-208.496,-28.809,0
1594888278.724,-71.777,-29.297,-152.832,-29.785,0
1594888278.728,-75.195,-30.762,-337.402,-30.273,0
1594888278.732,-92.285,-32.227,-459.473,-49.805,0
1594888278.736,-87.402,-32.715,-321.289,-31.250,0
1594888278.739,-68.359,-34.180,-187.988,-18.555,0
1594888278.743,-72.754,-32.227,-203.125,-27.832,0
1594888278.747,-83.984,-26.855,-549.316,-17.090,0
1594888278.751,-82.520,-24.902,-551.758,-4.395,0
1594888278.755,-67.383,-21.484,-157.715,-4.883,0
1594888278.768,-61.523,-26.367,-167.969,-7.324,0
1594888278.772,-78.125,-27.344,-310.547,-17.090,0
1594888278.776,-88.379,-26.367,-347.168,-26.855,0
1594888278.780,-77.637,-23.926,-225.586,-35.156,0
1594888278.784,-66.895,-20.996,-210.938,-49.316,0
1594888278.788,-80.078,-23.926,-285.645,-62.012,0
1594888278.792,-94.727,-25.879,-373.047,-62.500,0
1594888278.795,-86.914,-29.785,-507.812,-47.363,0
1594888278.799,-74.219,-30.762,-332.520,-42.480,0
1594888278.803,-83.496,-31.250,-175.781,-46.875,0
1594888278.807,-102.539,-36.621,-196.777,-35.156,0
1594888278.811,-102.539,-35.156,-353.027,-22.949,0
1594888278.806,-92.285,-31.738,-315.430,-23.926,0
1594888278.810,-84.961,-34.180,-93.262,-22.461,0
1594888278.814,-83.496,-37.598,-197.754,-8.301,0
1594888278.818,-88.379,-34.180,-200.684,-7.324,0
1594888278.822,-79.590,-36.133,-289.551,-8.789,0
1594888278.826,-66.406,-37.109,-343.262,-9.766,0
1594888278.830,-76.172,-34.668,-277.832,-15.625,0
1594888278.833,-80.078,-33.203,-182.129,-8.301,0
1594888278.837,-68.359,-30.762,11.719,-0.488,0
1594888278.841,-64.941,-27.832,-228.027,-1.465,0
1594888278.845,-72.754,-26.855,-388.184,-4.883,0
1594888278.849,-75.195,-24.902,-194.824,0.000,0
1594888278.862,-73.730,-26.855,-164.551,5.859,0
1594888278.866,-68.359,-26.367,-83.496,6.348,0
1594888278.870,-74.219,-25.879,-264.648,7.324,0
1594888278.874,-83.984,-31.250,-245.605,12.695,0
1594888278.878,-75.195,-27.344,-196.777,17.578,0
1594888278.882,-71.289,-26.855,-315.430,12.695,0
1594888278.886,-69.336,-27.344,-329.590,22.949,0
1594888278.889,-80.078,-23.438,-552.246,29.785,0
1594888278.893,-84.473,-23.438,-451.660,19.043,0
1594888278.897,-69.336,-25.391,14.648,21.484,0
1594888278.901,-69.824,-25.879,110.352,25.879,0
1594888278.905,-80.078,-27.832,-119.141,15.625,0
1594888278.901,-88.379,-29.297,-263.672,16.602,0
1594888278.905,-85.449,-32.715,-194.824,28.320,0
1594888278.909,-80.566,-35.645,0.000,27.344,0
1594888278.913,-81.055,-31.738,-21.484,30.273,0
1594888278.917,-92.773,-31.738,-422.363,32.227,0
1594888278.921,-87.891,-37.109,-395.020,32.715,0
1594888278.925,-75.195,-35.645,-177.246,32.715,0
1594888278.928,-81.543,-38.086,-216.797,18.555,0
1594888278.932,-94.727,-40.039,-238.281,15.137,0
1594888278.936,-98.145,-36.133,-451.660,24.414,0
1594888278.940,-80.078,-31.738,-379.883,28.809,0
1594888278.944,-72.754,-28.320,-30.762,21.484,0
1594888278.956,-84.961,-31.250,-81.055,17.578,0
1594888278.960,-93.262,-31.250,-247.070,21.973,0
1594888278.964,-93.262,-31.738,-150.879,25.879,0
1594888278.968,-93.750,-35.156,-26.367,29.297,0
1594888278.972,-99.121,-33.691,-243.164,28.320,0
1594888278.976,-104.980,-30.273,-351.074,23.438,0
1594888278.980,-96.680,-28.320,-303.223,22.949,0
1594888278.983,-88.379,-30.273,-508.789,30.273,0
1594888278.987,-99.609,-33.691,-474.609,20.996,0
1594888278.991,-108.398,-34.180,-185.059,11.230,0
1594888278.995,-101.562,-33.691,-215.332,13.672,0
1594888278.999,-79.590,-30.273,-309.082,12.207,0
1594888278.993,-81.055,-34.180,-240.723,3.906,0
1594888278.997,-106.934,-41.992,-230.957,-1.953,0
1594888279.001,-107.422,-35.645,-207.031,1.953,0
1594888279.005,-85.938,-31.250,-118.652,0.488,0
1594888279.009,-81.055,-32.715,-189.453,-5.859,0
1594888279.013,-90.332,-31.250,-366.699,6.348,0
1594888279.017,-98.145,-33.691,-413.574,6.836,0
1594888279.020,-98.145,-37.598,-287.598,-4.395,0
1594888279.024,-95.215,-31.250,-184.082,-9.766,0
1594888279.028,-93.750,-26.855,-454.102,-11.230,0
1594888279.032,-99.121,-32.227,-516.602,-10.742,0
1594888279.036,-98.633,-32.715,-219.727,-12.695,0
1594888279.050,-92.773,-30.273,-137.695,-17.578,0
1594888279.054,-103.027,-32.227,-223.145,-17.578,0
1594888279.058,-116.211,-36.621,-281.250,-23.926,0
1594888279.062,-110.840,-36.133,-171.387,-25.879,0
1594888279.066,-83.984,-41.992,-119.629,-18.555,0
1594888279.070,-73.242,-41.992,-214.355,-21.973,0
1594888279.074,-93.750,-29.785,-358.887,-48.828,0
1594888279.077,-91.797,-27.832,-572.266,-53.711,0
1594888279.081,-76.660,-32.227,-315.430,-42.969,0
1594888279.085,-87.891,-33.691,-152.344,-54.199,0
1594888279.089,-108.887,-38.574,-210.449,-68.359,0
1594888279.093,-115.723,-44.922,-365.234,-68.359,0
1594888279.087,-99.121,-40.039,-388.672,-61.523,0
1594888279.091,-83.984,-38.086,-20.508,-69.824,0
1594888279.095,-85.938,-37.598,-71.777,-69.824,0
1594888279.099,-90.820,-36.621,-146.973,-75.195,0
1594888279.103,-82.520,-38.086,-280.762,-76.172,0
1594888279.107,-71.777,-40.039,-306.641,-72.266,0
1594888279.111,-72.266,-39.062,-263.672,-71.777,0
1594888279.114,-84.961,-36.621,-278.809,-72.266,0
1594888279.118,-87.891,-38.574,-22.461,-73.730,0
1594888279.122,-73.730,-38.086,-203.125,-71.777,0
1594888279.126,-74.219,-40.527,-328.613,-67.871,0
1594888279.130,-80.078,-36.621,-160.645,-62.012,0
1594888279.143,-75.195,-27.832,-273.926,-65.918,0
1594888279.147,-78.125,-35.156,-244.629,-68.848,0
1594888279.151,-81.055,-33.203,-164.551,-67.383,1
1594888279.155,-89.844,-30.762,-24.414,-67.383,0
1594888279.159,-103.027,-32.715,-163.086,-56.152,0
1594888279.163,-101.074,-31.738,-312.012,-51.270,0
1594888279.167,-88.867,-38.574,-311.523,-51.758,0
1594888279.170,-87.402,-41.504,-552.734,-49.805,0
1594888279.174,-93.262,-41.992,-437.500,-53.223,0
1594888279.178,-94.727,-41.992,-210.938,-56.152,0
1594888279.182,-81.543,-37.598,-58.105,-59.082,0
1594888279.186,-79.590,-38.086,-67.871,-62.500,0
1594888279.181,-93.750,-41.016,-288.574,-56.152,0
1594888279.185,-95.215,-35.645,-240.234,-47.852,0
1594888279.189,-85.938,-29.297,-209.961,-53.223,0
1594888279.193,-89.355,-29.785,-270.020,-56.152,0
1594888279.197,-110.352,-31.250,-423.828,-57.129,0
1594888279.201,-113.770,-31.738,-440.918,-49.316,0
1594888279.205,-106.445,-33.691,-266.602,-44.434,0
1594888279.208,-98.633,-30.273,-52.734,-52.246,0
1594888279.212,-95.703,-28.320,-102.539,-51.270,0
1594888279.216,-107.422,-32.227,-481.934,-46.387,0
1594888279.220,-95.215,-30.273,-409.668,-39.062,0
1594888279.224,-71.289,-25.391,-142.578,-36.133,0
1594888279.237,-82.031,-29.785,-190.430,-29.297,0
1594888279.241,-101.074,-31.250,-320.801,-20.508,0
1594888279.245,-91.309,-26.367,-310.547,-7.812,0
1594888279.249,-80.566,-28.320,-126.953,-6.348,0
1594888279.253,-80.566,-31.738,-178.711,-15.137,0
1594888279.257,-79.102,-34.668,-363.281,-14.160,0
1594888279.261,-77.148,-36.133,-361.816,-20.020,0
1594888279.264,-69.336,-34.180,-466.309,-20.508,0
1594888279.268,-60.059,-38.086,-394.043,-20.996,0
1594888279.272,-59.082,-33.691,-178.223,-28.809,0
1594888279.276,-75.684,-24.902,-183.105,-32.227,0
1594888279.280,-75.684,-34.180,-302.734,-34.180,0
1594888279.275,-74.219,-37.109,-304.688,-32.227,0
1594888279.279,-89.355,-33.691,-159.668,-35.156,0
1594888279.283,-100.098,-30.762,-248.535,-34.668,0
1594888279.287,-91.797,-28.320,-236.816,-28.809,0
1594888279.291,-77.637,-31.738,-261.719,-39.551,0
1594888279.295,-80.566,-36.621,-360.840,-46.875,0
1594888279.299,-95.215,-36.621,-287.598,-37.598,0
1594888279.302,-94.727,-31.250,-229.980,-42.480,0
1594888279.306,-76.172,-28.809,-178.711,-63.477,0
1594888279.310,-72.754,-34.180,-407.227,-68.359,0
1594888279.314,-90.332,-40.039,-486.328,-67.871,0
1594888279.318,-92.285,-37.109,-215.332,-67.383,0
1594888279.331,-81.055,-36.133,-42.969,-61.035,0
1594888279.335,-82.520,-35.645,16.113,-61.523,0
1594888279.339,-86.426,-35.645,-177.246,-51.758,0
1594888279.343,-89.844,-36.133,-196.777,-35.156,0
1594888279.347,-81.543,-33.691,-218.262,-21.484,0
1594888279.351,-67.383,-36.133,-291.992,-25.879,0
1594888279.355,-77.637,-36.133,-346.680,-27.832,0
1594888279.358,-91.797,-35.645,-603.027,-14.648,0
1594888279.362,-83.984,-36.133,-386.230,-13.184,0
1594888279.366,-71.777,-36.621,14.648,-19.043,0
1594888279.370,-84.473,-41.016,-7.812,-31.738,0
1594888279.374,-94.727,-41.016,-278.809,-29.785,0
1594888279.370,-79.590,-33.691,-399.902,-17.090,0
1594888279.374,-62.988,-33.203,-141.113,-24.414,0
1594888279.378,-71.777,-38.086,-14.648,-39.062,0
1594888279.382,-96.680,-38.086,-126.465,-37.109,0
1594888279.386,-94.727,-37.109,-377.930,-28.320,0
1594888279.390,-78.125,-36.133,-373.535,-23.438,0
1594888279.394,-77.148,-33.203,-135.254,-22.949,0
1594888279.397,-87.402,-32.715,-117.676,-19.531,0
1594888279.401,-90.820,-28.809,-303.711,-27.832,0
1594888279.405,-78.613,-33.691,-505.859,-33.691,0
1594888279.409,-76.660,-43.457,-414.551,-28.809,0
1594888279.413,-83.496,-37.109,-198.730,-29.297,0
1594888279.425,-102.539,-34.668,-226.074,-33.203,0
1594888279.429,-102.051,-34.180,-269.043,-28.809,0
1594888279.433,-90.332,-32.715,-286.621,-27.344,0
1594888279.437,-92.773,-37.598,-126.465,-29.785,0
1594888279.441,-104.492,-32.227,-218.750,-23.926,0
1594888279.445,-109.375,-33.691,-349.121,-26.367,0
1594888279.449,-96.680,-39.062,-257.324,-23.926,0
1594888279.452,-88.379,-37.598,-462.402,-19.043,0
1594888279.456,-93.262,-39.062,-458.984,-23.926,0
1594888279.460,-95.215,-37.598,-211.914,-22.949,0
1594888279.464,-83.496,-34.180,4.883,-19.531,0
1594888279.468,-76.172,-32.715,-95.215,-15.137,0
1594888279.462,-78.613,-29.297,-321.777,-11.230,0
1594888279.466,-83.984,-25.879,-187.012,-21.484,0
1594888279.470,-79.102,-28.809,-39.551,-26.855,0
1594888279.474,-70.312,-25.391,34.668,-22.461,0
1594888279.478,-74.707,-24.902,-184.570,-20.020,0
1594888279.482,-82.520,-28.320,-332.520,-13.672,0
1594888279.486,-85.938,-32.715,-275.879,-21.484,0
1594888279.489,-75.684,-36.133,-255.371,-27.344,0
1594888279.493,-69.824,-39.551,-208.008,-19.043,0
1594888279.497,-83.496,-37.109,-479.004,-14.160,0
1594888279.501,-92.285,-29.785,-508.301,-6.836,0
1594888279.505,-83.008,-33.203,-111.328,-6.348,0
1594888279.518,-77.148,-34.668,39.062,-6.348,0
1594888279.522,-87.402,-34.668,-19.531,-10.254,0
1594888279.526,-87.402,-41.992,-193.848,-9.766,0
1594888279.530,-81.055,-43.457,-205.078,-11.230,0
1594888279.534,-73.730,-42.480,-144.043,-15.137,0
1594888279.538,-78.125,-37.598,-261.719,-8.301,0
1594888279.542,-85.938,-38.086,-403.809,-11.230,0
1594888279.545,-90.332,-46.875,-517.578,-10.742,0
1594888279.549,-85.938,-49.316,-363.281,-9.766,0
1594888279.553,-84.961,-38.574,-111.816,-16.113,0
1594888279.557,-86.914,-35.156,-157.715,-19.043,0
1594888279.561,-77.637,-40.039,-333.984,-19.043,0
1594888279.556,-68.359,-40.039,-333.008,-20.996,0
1594888279.560,-67.871,-37.109,-44.434,-28.320,0
1594888279.564,-77.637,-33.691,-148.926,-28.320,0
1594888279.568,-77.148,-29.785,-255.371,-22.461,0
1594888279.572,-74.219,-32.227,-261.230,-16.113,0
1594888279.576,-79.102,-33.691,-304.199,-18.066,0
1594888279.580,-90.332,-36.621,-284.668,-20.508,0
1594888279.583,-87.891,-41.504,-281.250,-6.836,0
1594888279.587,-78.125,-40.527,-280.273,-2.930,0
1594888279.591,-72.754,-41.504,-395.020,-0.488,0
1594888279.595,-83.496,-42.969,-404.297,-4.395,0
1594888279.599,-99.121,-40.527,-279.297,-13.184,0
1594888279.612,-92.773,-40.527,-209.473,-8.301,0
1594888279.616,-81.543,-41.504,-246.582,-11.230,0
1594888279.620,-83.984,-41.504,-292.969,-16.113,0
1594888279.624,-97.168,-41.504,-221.680,-13.184,0
1594888279.628,-94.727,-36.621,-221.191,-7.812,0
1594888279.632,-75.684,-36.621,-267.578,-5.371,0
1594888279.636,-76.172,-40.527,-296.387,-11.230,0
1594888279.639,-93.262,-35.645,-538.086,-13.672,0
1594888279.643,-87.891,-32.227,-492.676,-11.230,0
1594888279.647,-68.848,-32.227,-196.777,-15.625,0
1594888279.651,-71.289,-33.691,-120.117,-20.996,0
1594888279.655,-87.402,-35.156,-248.047,-25.879,0
1594888279.651,-98.145,-41.016,-334.961,-25.879,0
1594888279.655,-92.285,-47.363,-238.770,-20.996,0
1594888279.659,-73.242,-42.480,-220.215,-23.926,0
1594888279.663,-67.871,-38.086,-80.566,-15.137,0
1594888279.667,-84.473,-37.598,-250.977,-8.789,0
1594888279.671,-93.262,-36.621,-377.441,-14.160,0
1594888279.675,-89.844,-35.645,-151.855,-14.648,0
1594888279.678,-95.215,-35.156,-60.059,-7.324,0
1594888279.682,-105.469,-33.203,-205.566,-2.441,0
1594888279.686,-98.633,-32.227,-466.309,6.348,0
1594888279.690,-77.148,-24.902,-293.945,14.648,0
1594888279.694,-68.848,-23.926,21.973,18.066,0
1594888279.706,-76.660,-31.250,-133.789,15.625,0
1594888279.710,-80.566,-32.715,-340.332,14.160,0
1594888279.714,-73.730,-34.180,-290.527,20.996,0
1594888279.718,-67.871,-37.598,-190.918,21.484,0
1594888279.722,-73.242,-33.203,-318.848,24.414,0
1594888279.726,-84.961,-29.785,-363.281,33.203,0
1594888279.730,-85.938,-31.738,-323.730,35.645,0
1594888279.733,-72.266,-34.668,-464.844,43.457,0
1594888279.737,-74.219,-36.621,-421.875,45.898,0
1594888279.741,-87.891,-31.738,-230.957,40.527,0
1594888279.745,-83.984,-34.180,-83.008,45.410,0
1594888279.749,-65.430,-35.645,-64.941,50.293,0
1594888279.743,-62.012,-33.203,-194.824,41.992,0
1594888279.747,-80.078,-38.574,-226.074,32.227,0
1594888279.751,-89.355,-41.504,-208.984,33.691,0
1594888279.755,-76.660,-41.016,-12.207,29.785,0
1594888279.759,-75.195,-41.016,-113.281,27.344,0
1594888279.763,-90.820,-41.016,-346.191,28.809,0
1594888279.767,-93.262,-40.039,-315.430,24.414,0
1594888279.770,-88.379,-40.039,-270.996,22.949,0
1594888279.774,-81.543,-43.457,-251.465,21.484,0
1594888279.778,-79.590,-45.898,-464.844,24.902,0
1594888279.782,-96.680,-42.480,-496.094,26.367,0
1594888279.786,-95.215,-39.551,-259.277,21.973,0
1594888279.800,-73.730,-43.457,-131.348,29.785,0
1594888279.804,-83.496,-44.434,-175.781,33.203,0
1594888279.808,-106.445,-43.457,-287.109,24.414,0
1594888279.812,-99.609,-41.016,-8.301,19.531,0
1594888279.816,-84.473,-41.016,-84.961,19.043,0
1594888279.820,-89.355,-44.434,-314.453,17.090,0
1594888279.824,-100.586,-45.898,-359.375,13.672,0
1594888279.827,-103.027,-44.922,-554.199,23.438,0
1594888279.831,-95.703,-40.039,-426.270,27.832,0
1594888279.835,-87.891,-36.133,-151.367,29.785,0
1594888279.839,-95.703,-39.551,-262.207,33.203,0
1594888279.843,-101.562,-36.621,-424.805,31.250,0
1594888279.837,-85.938,-31.250,-360.352,28.320,0
1594888279.841,-70.801,-31.738,-52.246,20.996,0
1594888279.845,-75.684,-37.598,-50.781,12.695,0
1594888279.849,-87.402,-38.086,-229.980,2.930,0
1594888279.853,-88.379,-37.109,-256.836,3.418,0
1594888279.857,-83.496,-35.156,-229.004,0.977,0
1594888279.861,-83.008,-32.227,-207.031,-9.277,0
1594888279.864,-91.797,-33.203,-212.891,-14.648,0
1594888279.868,-89.355,-35.156,-216.309,-17.090,0
1594888279.872,-76.660,-34.668,-375.000,-18.555,0
1594888279.876,-73.242,-26.367,-340.332,-14.648,0
1594888279.880,-85.938,-24.414,-204.590,-7.812,0
1594888279.893,-106.934,-30.762,-301.270,-12.207,0
1594888279.897,-95.215,-34.668,-293.457,-19.531,0
1594888279.901,-82.031,-38.574,-259.766,-20.020,0
1594888279.905,-90.820,-37.598,-141.602,-30.762,0
1594888279.909,-97.168,-35.645,-224.121,-32.715,0
1594888279.913,-82.031,-35.156,-356.445,-21.484,0
1594888279.917,-71.777,-37.109,-282.715,-31.250,0
1594888279.920,-81.055,-39.062,-485.352,-36.133,0
1594888279.924,-91.309,-30.273,-396.484,-34.180,0
1594888279.928,-98.145,-32.227,-183.105,-44.922,0
1594888279.932,-99.121,-42.969,-57.129,-48.828,0
1594888279.936,-93.750,-40.527,-101.074,-51.758,0
1594888279.931,-95.215,-36.621,-262.207,-50.293,0
1594888279.935,-89.844,-38.574,-148.438,-49.805,0
1594888279.939,-76.660,-41.504,-169.922,-55.664,0
1594888279.943,-75.195,-40.527,-295.898,-62.500,0
1594888279.947,-79.102,-35.645,-452.148,-53.711,0
1594888279.951,-73.730,-32.715,-377.441,-47.363,0
1594888279.955,-61.523,-33.691,-255.859,-41.992,0
1594888279.958,-72.266,-34.668,-215.820,-31.250,0
1594888279.962,-87.891,-36.133,-189.453,-27.344,0
1594888279.966,-88.379,-38.086,-451.660,-15.137,0
1594888279.970,-87.891,-37.598,-380.859,-4.883,0
1594888279.974,-91.309,-33.203,78.125,1.953,1
1594888279.987,-96.680,-29.297,-47.363,8.789,0
1594888279.991,-107.910,-28.809,-322.754,2.930,0
1594888279.995,-101.562,-25.391,-273.438,5.859,0
1594888279.999,-83.496,-19.043,-67.871,10.742,0
1594888280.003,-88.867,-29.297,-154.785,-5.859,0
1594888280.007,-104.004,-36.133,-364.258,-10.742,0
1594888280.011,-100.098,-29.297,-333.496,3.418,0
1594888280.014,-82.031,-28.320,-449.707,4.395,0
1594888280.018,-78.613,-28.809,-395.020,-8.789,0
1594888280.022,-86.914,-33.203,-178.711,-20.996,0
1594888280.026,-92.285,-34.668,-192.871,-24.414,0
1594888280.030,-84.961,-33.203,-322.754,-18.555,0
1594888280.025,-77.637,-35.645,-304.199,-22.949,0
1594888280.029,-81.055,-32.715,-195.801,-38.574,0
1594888280.033,-87.891,-33.203,-249.023,-46.875,0
1594888280.037,-76.172,-33.203,-248.535,-37.598,0
1594888280.041,-59.570,-36.621,-287.109,-32.715,0
1594888280.045,-63.477,-32.715,-291.992,-43.945,0
1594888280.049,-79.590,-32.227,-331.543,-42.969,0
1594888280.052,-88.867,-36.133,-267.090,-39.551,0
1594888280.056,-70.312,-34.180,-165.527,-40.527,0
1594888280.060,-77.637,-39.062,-417.480,-38.574,0
1594888280.064,-98.145,-46.875,-478.516,-44.434,0
1594888280.068,-89.844,-40.039,-186.523,-49.805,0
1594888280.081,-91.797,-40.527,-168.457,-37.598,0
1594888280.085,-94.238,-46.875,-254.395,-35.645,0
1594888280.089,-91.797,-43.945,-294.434,-46.387,0
1594888280.093,-103.027,-43.457,-214.355,-55.176,0
1594888280.097,-88.867,-39.062,-249.023,-51.758,0
1594888280.101,-71.777,-36.621,-309.570,-45.410,0
1594888280.105,-82.031,-40.527,-350.098,-50.293,0
1594888280.108,-88.379,-41.992,-568.848,-41.016,0
1594888280.112,-84.961,-41.504,-478.027,-32.715,0
1594888280.116,-74.219,-36.621,-89.355,-29.785,0
1594888280.120,-82.031,-33.203,-90.820,-27.832,0
1594888280.124,-99.609,-40.039,-314.941,-31.250,0
1594888280.120,-98.145,-40.527,-320.801,-30.762,0
1594888280.124,-75.195,-33.203,-91.309,-37.109,0
1594888280.128,-62.988,-30.762,59.082,-42.480,0
1594888280.132,-76.660,-36.621,77.148,-44.434,0
1594888280.136,-74.707,-40.039,-195.312,-46.387,0
1594888280.140,-60.547,-37.109,-350.098,-42.480,0
1594888280.144,-65.918,-35.645,-239.258,-43.457,0
1594888280.147,-73.242,-33.203,-251.465,-42.480,0
1594888280.151,-82.031,-30.762,-232.422,-46.387,0
1594888280.155,-78.613,-34.668,-446.777,-44.434,0
1594888280.159,-62.500,-37.109,-262.695,-36.621,0
1594888280.163,-65.430,-34.180,54.688,-38.574,0
1594888280.175,-81.055,-36.133,-154.297,-45.410,0
1594888280.179,-75.684,-35.645,-203.613,-43.945,0
1594888280.183,-60.059,-31.250,-190.430,-38.086,0
1594888280.187,-64.453,-26.367,-193.848,-39.062,0
1594888280.191,-79.102,-30.273,-270.996,-39.062,0
1594888280.195,-84.473,-34.668,-377.441,-40.039,0
1594888280.199,-76.660,-28.809,-295.898,-40.527,0
1594888280.202,-78.125,-31.250,-480.957,-35.156,0
1594888280.206,-93.262,-34.180,-472.168,-38.574,0
1594888280.210,-95.703,-32.227,-183.594,-47.363,0
1594888280.214,-86.426,-35.156,-26.855,-50.781,0
1594888280.218,-75.684,-38.574,-83.496,-55.176,0
1594888280.212,-81.543,-38.086,-265.625,-61.035,0
1594888280.216,-95.703,-35.645,-186.035,-60.059,0
1594888280.220,-84.473,-29.785,-211.426,-54.688,0
1594888280.224,-77.148,-27.832,-183.105,-50.781,0
1594888280.228,-88.379,-33.203,-273.926,-42.969,0
1594888280.232,-100.098,-32.715,-378.906,-38.574,0
1594888280.236,-92.773,-26.855,-330.078,-42.969,0
1594888280.239,-79.590,-27.344,-237.305,-43.945,0
1594888280.243,-76.172,-30.273,-179.199,-41.992,0
1594888280.247,-82.031,-31.250,-473.145,-40.527,0
1594888280.251,-90.820,-28.320,-515.137,-43.945,0
1594888280.255,-81.055,-25.391,-178.711,-49.805,0
1594888280.268,-64.453,-28.809,-62.012,-50.293,0
1594888280.272,-70.801,-32.227,-202.148,-57.617,0
1594888280.276,-77.637,-31.738,-303.223,-55.176,0
1594888280.280,-71.777,-33.691,-206.543,-47.363,0
1594888280.284,-67.871,-33.203,-133.301,-42.969,0
1594888280.288,-77.148,-30.273,-211.426,-47.363,0
1594888280.292,-96.191,-35.156,-296.875,-54.199,0
1594888280.295,-87.891,-32.715,-482.422,-52.246,0
1594888280.299,-78.613,-31.250,-369.629,-58.105,0
1594888280.303,-85.449,-36.621,-118.652,-74.707,0
1594888280.307,-95.215,-31.738,-130.371,-88.867,0
1594888280.311,-96.680,-26.855,-341.797,-87.891,0
1594888280.306,-83.008,-30.762,-384.277,-83.008,0
1594888280.310,-79.102,-33.691,-167.480,-87.402,0
1594888280.314,-95.703,-33.203,-90.820,-88.867,0
1594888280.318,-101.562,-40.039,-104.492,-82.031,0
1594888280.322,-87.891,-39.062,-267.090,-67.383,0
1594888280.326,-84.961,-39.062,-331.055,-69.336,0
1594888280.330,-86.426,-38.574,-274.902,-74.707,0
1594888280.333,-84.473,-30.273,-270.996,-63.477,0
1594888280.337,-78.613,-31.250,-256.836,-58.105,0
1594888280.341,-70.312,-36.133,-397.461,-58.594,0
1594888280.345,-74.219,-33.203,-405.762,-65.918,0
1594888280.349,-93.750,-33.691,-260.742,-65.918,0
1594888280.362,-98.633,-37.598,-275.391,-68.359,0
1594888280.366,-83.984,-31.738,-130.371,-73.242,0
1594888280.370,-90.820,-32.227,-152.344,-65.430,0
1594888280.374,-111.328,-36.621,-258.301,-58.105,0
1594888280.378,-104.980,-32.227,-311.035,-51.270,0
1594888280.382,-87.891,-30.762,-236.328,-51.758,0
1594888280.386,-83.496,-32.715,-205.566,-66.895,0
1594888280.389,-90.820,-31.250,-510.254,-65.430,0
1594888280.393,-94.727,-29.785,-448.730,-62.012,0
1594888280.397,-86.426,-31.738,-131.836,-73.242,0
1594888280.401,-80.566,-33.691,4.395,-79.590,0
1594888280.405,-85.938,-30.762,-187.012,-81.543,0
1594888280.400,-92.285,-28.320,-350.098,-85.449,0
1594888280.404,-89.844,-35.156,-150.391,-82.520,0
1594888280.408,-84.473,-32.715,-199.219,-84.961,0
1594888280.412,-87.891,-30.762,-271.973,-89.844,0
1594888280.416,-99.121,-42.969,-432.617,-77.637,0
1594888280.420,-97.656,-40.039,-427.246,-70.312,0
1594888280.424,-79.102,-30.273,-145.508,-70.312,0
1594888280.427,-74.219,-36.133,-24.414,-72.754,0
1594888280.431,-81.543,-41.504,-15.137,-78.125,0
1594888280.435,-88.379,-37.109,-377.930,-73.242,0
1594888280.439,-87.402,-38.574,-381.836,-80.078,0
1594888280.443,-78.125,-39.551,-12.207,-94.238,0
1594888280.456,-85.938,-37.598,-58.594,-83.496,0
1594888280.460,-85.449,-38.086,-239.746,-69.336,0
1594888280.464,-67.871,-36.621,-252.930,-67.871,0
1594888280.468,-69.336,-37.598,-52.246,-65.918,0
1594888280.472,-78.125,-35.645,-115.723,-66.406,0
1594888280.476,-85.938,-32.227,-309.082,-70.801,0
1594888280.480,-89.355,-35.156,-281.738,-70.801,0
1594888280.483,-80.566,-37.109,-495.605,-64.453,0
1594888280.487,-74.219,-32.715,-469.238,-63.965,0
1594888280.491,-90.332,-29.785,-262.207,-64.941,0
1594888280.495,-100.586,-28.809,-181.641,-63.477,0
1594888280.499,-75.684,-29.785,-237.305,-59.570,0
1594888280.493,-65.918,-28.809,-319.336,-59.082,0
1594888280.497,-83.008,-30.762,-164.062,-65.430,0
1594888280.501,-90.332,-34.180,-203.613,-56.152,0
1594888280.505,-82.031,-35.645,-111.816,-58.105,0
1594888280.509,-92.285,-36.621,-154.297,-63.477,0
1594888280.513,-111.816,-36.133,-280.273,-51.758,0
1594888280.517,-114.746,-38.574,-251.953,-47.852,0
1594888280.520,-98.145,-35.156,-169.434,-51.270,0
1594888280.524,-77.148,-34.180,-148.438,-53.223,0
1594888280.528,-81.055,-37.598,-476.074,-56.641,0
1594888280.532,-92.773,-35.156,-486.816,-45.898,0
1594888280.536,-90.332,-36.133,-199.219,-34.668,0
1594888280.550,-80.078,-35.645,-31.738,-32.715,0
1594888280.554,-86.426,-30.273,-95.215,-25.879,0
1594888280.558,-105.469,-30.273,-280.273,-26.855,0
1594888280.562,-100.098,-31.250,-182.129,-31.738,0
1594888280.566,-82.520,-32.227,-153.320,-37.109,0
1594888280.570,-80.078,-30.762,-228.516,-37.109,0
1594888280.574,-85.449,-30.273,-368.652,-30.273,0
1594888280.577,-93.262,-30.273,-601.562,-33.691,0
1594888280.581,-87.891,-27.344,-420.410,-41.504,0
1594888280.585,-77.637,-29.297,-29.785,-53.223,0
1594888280.589,-82.031,-32.715,-129.883,-61.035,0
1594888280.593,-93.262,-35.645,-460.938,-62.988,0
1594888280.588,-87.402,-36.621,-459.473,-67.383,0
1594888280.592,-72.266,-31.250,-178.223,-74.707,0
1594888280.596,-73.730,-28.809,-238.281,-81.055,0
1594888280.600,-77.637,-31.250,-271.484,-72.754,0
1594888280.604,-78.613,-36.621,-285.645,-65.918,0
1594888280.608,-78.613,-36.133,-329.102,-72.266,0
1594888280.612,-83.496,-35.645,-304.688,-76.660,0
1594888280.615,-89.355,-32.227,-249.512,-81.543,0
1594888280.619,-83.984,-34.180,-225.098,-82.031,0
1594888280.623,-69.336,-36.133,-363.770,-75.195,0
1594888280.627,-65.430,-30.762,-300.781,-77.148,0
1594888280.631,-81.543,-31.250,-180.664,-87.891,0
1594888280.645,-89.844,-37.598,-270.508,-93.262,0
1594888280.649,-80.078,-41.016,-226.074,-90.820,0
1594888280.653,-72.754,-36.621,-270.996,-93.750,0
1594888280.657,-80.078,-34.180,-252.930,-93.750,0
1594888280.661,-95.703,-35.156,-277.832,-81.543,0
1594888280.665,-84.473,-33.691,-312.500,-74.707,0
1594888280.669,-71.289,-34.180,-244.629,-69.824,0
1594888280.672,-84.473,-34.180,-481.445,-50.781,0
1594888280.676,-96.191,-31.250,-454.590,-45.410,0
1594888280.680,-93.750,-31.250,-142.090,-44.922,0
1594888280.684,-85.449,-31.738,-184.082,-41.992,0
1594888280.688,-85.938,-32.715,-331.543,-42.969,0
1594888280.681,-97.168,-31.250,-308.594,-43.945,0
1594888280.685,-97.168,-32.227,-257.324,-51.270,0
1594888280.689,-87.891,-33.203,-187.988,-57.129,0
1594888280.693,-83.496,-29.297,-32.227,-54.688,0
1594888280.697,-87.402,-30.273,-233.887,-48.340,0
1594888280.701,-87.402,-30.273,-362.793,-41.504,0
1594888280.705,-79.590,-29.785,-361.816,-42.480,0
1594888280.708,-75.684,-35.156,-314.453,-43.457,0
1594888280.712,-83.984,-41.016,-213.379,-40.039,0
1594888280.716,-95.703,-36.133,-471.680,-26.367,0
1594888280.720,-85.938,-35.156,-410.645,-18.555,0
1594888280.724,-76.660,-38.574,11.719,-21.484,0
1594888280.737,-85.449,-34.668,-1.465,-18.555,0
1594888280.741,-90.332,-26.855,-233.398,-15.137,0
1594888280.745,-89.355,-31.738,-272.461,-8.789,0
1594888280.749,-81.055,-33.691,-156.738,-11.230,0
1594888280.753,-78.125,-28.320,-126.953,-11.719,0
1594888280.757,-97.168,-35.156,-268.555,-10.254,0
1594888280.761,-106.934,-41.504,-361.816,-7.812,0
1594888280.764,-89.844,-45.898,-463.867,-2.930,1
1594888280.768,-78.613,-41.992,-404.785,-2.441,0
1594888280.772,-82.031,-34.180,-219.727,-17.578,0
1594888280.776,-78.125,-32.715,-195.312,-10.254,0
1594888280.780,-68.848,-37.109,-298.340,3.906,0
1594888280.775,-66.895,-36.621,-293.945,-5.371,0
1594888280.779,-77.637,-39.062,-170.898,-4.883,0
1594888280.783,-100.586,-42.969,-191.406,-13.184,0
1594888280.787,-106.934,-37.598,-141.113,-15.625,0
1594888280.791,-86.914,-37.598,-175.781,-12.207,0
1594888280.795,-81.543,-40.039,-251.953,-21.484,0
1594888280.799,-88.867,-38.574,-281.738,-25.879,0
1594888280.802,-82.520,-30.273,-201.660,-20.996,0
1594888280.806,-62.012,-26.855,-142.090,-23.438,0
1594888280.810,-62.988,-33.203,-438.477,-26.855,0
1594888280.814,-88.379,-31.738,-511.719,-23.926,0
1594888280.818,-92.285,-30.273,-247.559,-19.043,0
1594888280.817,-74.219,-28.809,-160.645,-21.973,0
1594888280.821,-69.824,-31.738,-193.359,-36.133,0
1594888280.825,-80.078,-38.086,-298.828,-46.875,0
1594888280.829,-87.891,-39.551,-168.945,-44.434,0
1594888280.833,-90.820,-41.016,-225.098,-37.109,0
1594888280.837,-85.449,-38.574,-357.422,-32.715,0
1594888280.841,-89.844,-35.645,-383.789,-24.414,0
1594888280.844,-98.145,-31.738,-395.996,-18.066,0
1594888280.848,-88.867,-25.391,-245.605,-16.113,0
1594888280.852,-73.730,-27.344,-210.449,-15.625,0
1594888280.856,-76.172,-32.227,-189.941,-11.719,0
1594888280.860,-88.867,-30.762,-369.629,-6.836,0
1594888280.870,-84.961,-30.762,-479.980,-3.418,0
1594888280.874,-67.871,-32.715,-294.434,1.953,0
1594888280.878,-66.895,-32.715,-176.758,4.395,0
1594888280.882,-77.148,-31.250,-198.242,0.000,0
1594888280.886,-89.355,-34.180,-378.418,-12.695,0
1594888280.890,-84.961,-46.387,-631.348,-11.719,0
1594888280.894,-74.707,-43.945,-419.922,-4.395,0
1594888280.897,-74.707,-31.738,-141.602,-14.160,0
1594888280.901,-77.637,-29.785,-319.824,-25.391,0
1594888280.905,-72.754,-25.391,-354.004,-26.855,0
1594888280.909,-70.801,-22.461,-209.473,-25.391,0
1594888280.913,-84.961,-25.391,-173.340,-31.738,0
1594888280.925,-91.309,-34.180,-203.125,-25.391,0
1594888280.929,-78.613,-33.203,-287.598,-8.301,0
1594888280.933,-68.359,-27.344,-319.336,-6.836,0
1594888280.937,-79.590,-29.297,-284.180,-12.207,0
1594888280.941,-95.215,-28.809,-343.750,-12.207,0
1594888280.945,-88.379,-28.809,-326.660,-7.324,0
1594888280.949,-74.219,-31.250,-238.281,-11.719,0
1594888280.952,-73.730,-30.273,-444.824,-14.648,0
1594888280.956,-80.078,-31.250,-509.277,-20.020,0
1594888280.960,-82.520,-28.320,-269.043,-23.926,0
1594888280.964,-71.777,-20.996,-29.785,-16.602,0
1594888280.968,-63.477,-28.809,6.348,-21.484,0
1594888280.962,-69.824,-32.715,-209.961,-32.715,0
1594888280.966,-81.543,-33.691,-252.930,-31.250,0
