timestamps,TP9,AF7,AF8,TP10,Marker0
1594888417.087,-63.477,-4.395,-206.543,-70.801,0
1594888417.091,-51.270,-0.488,-196.777,-72.266,0
1594888417.095,-51.758,13.672,-202.148,-72.266,0
1594888417.099,-56.641,14.648,-244.629,-74.219,0
1594888417.103,-53.223,12.207,-164.062,-72.266,0
1594888417.107,-48.828,12.207,-18.066,-69.336,0
1594888417.111,-49.316,0.000,-139.160,-61.523,0
1594888417.114,-60.547,-6.348,-433.594,-53.711,0
1594888417.118,-68.848,2.441,-246.094,-50.781,0
1594888417.122,-63.477,5.371,11.719,-50.781,0
1594888417.126,-65.918,1.465,-7.324,-54.688,0
1594888417.130,-87.402,-3.906,-293.945,-51.270,0
1594888417.125,-95.703,7.812,-326.172,-48.828,0
1594888417.129,-90.332,9.766,-141.113,-52.734,0
1594888417.133,-83.008,1.465,1.953,-53.223,0
1594888417.137,-86.426,-1.465,-167.480,-60.547,0
1594888417.141,-101.074,-11.230,-508.789,-65.918,0
1594888417.145,-98.145,-6.836,-359.375,-70.312,0
1594888417.149,-83.008,1.465,-223.145,-74.219,0
1594888417.152,-74.219,-0.488,-215.820,-71.289,0
1594888417.156,-75.195,7.324,-250.977,-60.547,0
1594888417.160,-81.543,3.906,-461.914,-59.570,0
1594888417.164,-72.266,8.301,-202.148,-63.965,0
1594888417.168,-59.570,15.625,91.309,-61.523,0
1594888417.181,-66.406,9.766,8.301,-60.059,0
1594888417.185,-78.125,7.812,-111.328,-57.617,0
1594888417.189,-72.266,10.742,-94.727,-60.547,0
1594888417.193,-67.383,8.301,84.473,-72.266,0
1594888417.197,-77.637,6.348,-5.859,-76.660,0
1594888417.201,-93.750,0.000,-231.934,-79.102,0
1594888417.205,-93.262,-0.977,-314.453,-75.684,0
1594888417.208,-83.984,8.301,-220.703,-67.383,0
1594888417.212,-85.449,4.883,-169.922,-68.848,0
1594888417.216,-94.727,0.488,-218.262,-65.430,0
1594888417.220,-96.680,0.977,-78.125,-61.523,0
1594888417.224,-89.844,-3.418,-110.352,-67.383,0
1594888417.219,-81.543,6.836,-73.730,-58.594,0
1594888417.223,-85.449,15.137,-139.648,-42.969,0
1594888417.227,-92.773,2.930,-270.020,-44.922,0
1594888417.231,-78.613,-10.742,-250.488,-49.805,0
1594888417.235,-69.824,-5.371,-372.559,-47.852,0
1594888417.239,-77.637,7.324,-346.191,-38.086,0
1594888417.243,-86.426,12.695,-162.598,-42.480,0
1594888417.246,-78.125,15.625,56.152,-49.805,0
1594888417.250,-66.895,11.230,-2.441,-41.992,0
1594888417.254,-77.148,0.488,-368.652,-41.016,0
1594888417.258,-85.449,10.742,-217.285,-43.945,0
1594888417.262,-88.867,14.160,-10.742,-45.410,0
1594888417.275,-85.938,13.672,62.500,-59.570,0
1594888417.279,-76.660,14.648,-59.570,-61.035,0
1594888417.283,-81.055,22.949,-152.344,-57.129,0
1594888417.287,-74.707,23.926,28.320,-62.988,0
1594888417.291,-60.547,24.414,62.988,-58.594,0
1594888417.295,-62.988,26.367,-43.945,-52.246,0
1594888417.299,-71.777,17.578,-279.297,-57.129,0
1594888417.302,-70.801,29.297,-327.148,-55.664,0
1594888417.306,-66.406,37.598,-64.453,-70.312,0
1594888417.310,-67.871,30.273,64.453,-70.312,0
1594888417.314,-75.195,29.297,-19.531,-60.547,0
1594888417.318,-85.938,28.320,-184.082,-63.965,0
1594888417.312,-79.590,41.992,-19.531,-67.383,0
1594888417.316,-70.312,34.668,72.266,-65.918,0
1594888417.320,-77.148,25.391,-103.027,-55.664,0
1594888417.324,-87.402,31.738,-255.859,-55.664,0
1594888417.328,-86.914,20.508,-448.242,-45.898,0
1594888417.332,-83.496,20.020,-320.801,-45.410,0
1594888417.336,-89.844,8.789,-157.227,-58.105,0
1594888417.339,-94.238,-0.977,-3.418,-63.965,0
1594888417.343,-96.680,-9.277,27.832,-63.965,0
1594888417.347,-91.309,-20.508,-353.027,-46.387,0
1594888417.351,-83.008,-12.207,-224.121,-40.527,0
1594888417.355,-81.543,-28.809,-133.789,-46.387,0
1594888417.369,-74.219,-39.062,-219.238,-42.480,0
1594888417.373,-70.312,-29.297,-189.453,-49.316,0
1594888417.377,-72.266,-20.020,-172.852,-65.430,0
1594888417.381,-78.613,-12.207,-159.180,-63.965,0
1594888417.385,-89.844,-11.719,-266.113,-64.453,0
1594888417.389,-87.891,-17.578,-227.539,-74.707,0
1594888417.393,-76.172,-26.367,-298.340,-70.801,0
1594888417.396,-78.125,-28.809,-526.855,-66.895,0
1594888417.400,-83.496,-16.602,-296.387,-74.219,0
1594888417.404,-78.125,-12.695,-120.605,-67.383,0
1594888417.408,-68.848,-11.719,3.418,-63.477,0
1594888417.412,-62.988,-14.648,-108.398,-61.035,0
1594888417.406,-67.383,-10.742,-219.238,-48.828,0
1594888417.410,-74.219,0.000,-48.340,-47.363,0
1594888417.414,-65.918,-4.883,20.508,-48.340,0
1594888417.418,-62.988,-14.160,-171.875,-48.828,0
1594888417.422,-80.078,-21.973,-392.578,-52.246,0
1594888417.426,-88.379,-26.855,-249.023,-51.270,0
1594888417.430,-79.102,-36.133,-157.227,-48.828,0
1594888417.433,-76.172,-38.086,29.297,-46.387,0
1594888417.437,-82.031,-37.598,-25.391,-48.828,0
1594888417.441,-83.496,-58.594,-445.312,-50.781,0
1594888417.445,-74.707,-41.016,-207.520,-50.293,0
1594888417.449,-65.430,-20.996,156.738,-52.734,0
1594888417.462,-71.289,-21.973,43.457,-52.734,0
1594888417.466,-79.102,-26.367,-104.980,-52.246,0
1594888417.470,-77.637,-21.973,-126.465,-50.293,0
1594888417.474,-70.312,-10.742,74.219,-54.688,0
1594888417.478,-67.383,-17.090,64.453,-62.012,0
1594888417.482,-69.824,-27.832,-240.723,-51.758,0
1594888417.486,-66.406,-25.879,-351.074,-40.039,0
1594888417.489,-55.176,-12.207,-101.562,-41.992,0
1594888417.493,-52.246,-14.648,186.035,-47.363,0
1594888417.497,-63.965,-25.391,155.273,-50.781,0
1594888417.501,-68.848,-18.555,53.223,-50.293,0
1594888417.505,-62.500,-14.160,-84.473,-50.781,0
1594888417.501,-64.941,-4.395,52.734,-52.246,0
1594888417.505,-73.242,-1.465,131.348,-53.223,0
1594888417.509,-77.637,-9.277,-48.828,-58.594,0
1594888417.513,-77.637,-2.930,-184.082,-57.129,0
1594888417.517,-81.055,6.348,-283.691,-55.176,0
1594888417.521,-90.332,-1.953,-233.398,-63.477,0
1594888417.525,-97.656,-9.766,-176.270,-72.266,0
1594888417.528,-96.680,-1.465,-44.922,-69.336,0
1594888417.532,-97.168,-2.441,59.570,-58.105,0
1594888417.536,-85.449,-6.836,-304.199,-51.758,0
1594888417.540,-80.078,5.859,-101.562,-49.805,0
1594888417.544,-88.867,-4.395,89.844,-49.805,0
1594888417.556,-80.566,-10.742,78.125,-49.316,0
1594888417.560,-73.242,4.395,32.227,-43.457,0
1594888417.564,-87.402,4.395,-122.559,-44.434,0
1594888417.568,-95.703,5.859,29.297,-48.828,0
1594888417.572,-80.566,6.348,36.621,-52.246,1
1594888417.576,-74.219,0.000,-125.488,-57.129,0
1594888417.580,-77.637,-11.719,-281.738,-61.035,0
1594888417.583,-79.590,-19.043,-463.379,-64.453,0
1594888417.587,-79.102,7.324,-226.562,-64.453,0
1594888417.591,-76.660,20.020,68.848,-61.035,0
1594888417.595,-84.961,3.906,31.738,-62.988,0
1594888417.599,-92.773,-1.465,-298.828,-70.312,0
1594888417.594,-90.332,16.113,-296.387,-69.824,0
1594888417.598,-81.055,24.414,-39.062,-62.500,0
1594888417.602,-73.242,16.113,8.789,-64.941,0
1594888417.606,-79.102,4.395,-226.562,-78.125,0
1594888417.610,-88.867,-2.441,-476.562,-70.312,0
1594888417.614,-85.938,7.324,-358.887,-68.848,0
1594888417.618,-81.543,9.277,-184.082,-70.312,0
1594888417.621,-87.891,6.836,-23.438,-64.941,0
1594888417.625,-89.844,7.812,-50.781,-62.500,0
1594888417.629,-78.613,-0.977,-386.719,-53.223,0
1594888417.633,-77.637,6.836,-84.473,-56.641,0
1594888417.637,-79.590,12.207,98.145,-67.383,0
1594888417.650,-73.730,6.348,4.395,-60.547,0
1594888417.654,-75.195,0.488,-52.734,-54.199,0
1594888417.658,-71.777,-3.418,-185.547,-58.594,0
1594888417.662,-68.359,-2.930,-263.672,-54.688,0
1594888417.666,-76.172,-0.488,-331.543,-50.293,0
1594888417.670,-83.496,1.465,-371.094,-59.570,0
1594888417.674,-77.637,-2.441,-385.254,-64.941,0
1594888417.677,-72.754,-3.418,-388.184,-59.570,0
1594888417.681,-73.730,3.906,-281.250,-59.570,0
1594888417.685,-77.637,2.930,-221.680,-61.523,0
1594888417.689,-72.754,-9.277,-116.211,-59.082,0
1594888417.693,-62.012,-22.461,-218.262,-56.152,0
1594888417.687,-69.336,-8.301,-199.219,-61.523,0
1594888417.691,-78.613,3.418,-126.465,-69.336,0
1594888417.695,-79.590,1.465,-188.965,-67.871,0
1594888417.699,-72.266,-3.906,-253.418,-62.500,0
1594888417.703,-72.266,-9.277,-444.824,-67.383,0
1594888417.707,-88.379,-4.883,-346.680,-71.777,0
1594888417.711,-89.355,-0.977,-218.262,-75.684,0
1594888417.714,-83.984,-2.441,48.340,-83.008,0
1594888417.718,-81.543,-8.301,24.414,-84.473,0
1594888417.722,-75.195,-15.137,-462.891,-77.637,0
1594888417.726,-78.613,-20.020,-333.984,-75.684,0
1594888417.730,-73.242,-19.043,45.410,-73.730,0
1594888417.744,-68.359,-7.812,106.445,-73.730,0
1594888417.748,-78.613,-8.301,-158.691,-70.801,0
1594888417.752,-82.031,-12.695,-350.098,-71.777,0
1594888417.756,-71.777,-10.742,-90.332,-78.125,0
1594888417.760,-68.359,-1.953,25.879,-72.266,0
1594888417.764,-73.730,3.418,-162.598,-75.684,0
1594888417.768,-76.660,-1.953,-329.590,-93.262,0
1594888417.771,-72.754,0.977,-232.910,-94.238,0
1594888417.775,-65.430,5.371,18.066,-85.449,0
1594888417.779,-61.035,4.395,55.176,-72.754,0
1594888417.783,-74.219,0.488,-53.711,-74.707,0
1594888417.787,-79.590,-2.441,-216.797,-78.613,0
1594888417.782,-67.383,4.395,-191.895,-69.336,0
1594888417.786,-62.012,10.742,-211.914,-66.406,0
1594888417.790,-74.219,7.812,-271.484,-61.035,0
1594888417.794,-81.055,3.418,-295.898,-56.152,0
1594888417.798,-70.801,1.465,-380.371,-50.293,0
1594888417.802,-74.219,0.977,-290.039,-41.016,0
1594888417.806,-80.078,4.883,-238.281,-39.062,0
1594888417.809,-74.219,9.277,-70.801,-34.668,0
1594888417.813,-62.012,2.930,0.000,-39.062,0
1594888417.817,-50.293,-8.789,-323.730,-35.645,0
1594888417.821,-60.059,1.953,-122.559,-35.156,0
1594888417.825,-76.172,6.348,-77.148,-40.039,0
1594888417.837,-78.125,-5.371,-119.629,-32.715,0
1594888417.841,-77.148,-16.113,-41.992,-43.945,0
1594888417.845,-82.031,-15.137,-225.586,-59.570,0
1594888417.849,-85.449,-14.160,-245.605,-53.711,0
1594888417.853,-83.984,-12.207,-145.020,-55.664,0
1594888417.857,-70.801,-6.348,-164.062,-56.152,0
1594888417.861,-62.500,-9.766,-264.648,-65.430,0
1594888417.864,-73.242,-19.043,-437.988,-72.266,0
1594888417.868,-74.707,-7.812,-180.176,-62.500,0
1594888417.872,-63.965,0.000,108.398,-65.430,0
1594888417.876,-60.547,-3.906,91.797,-64.453,0
1594888417.880,-66.895,-11.230,-159.180,-56.641,0
1594888417.875,-76.172,-10.742,-295.410,-58.105,0
1594888417.879,-68.359,2.930,-94.238,-50.781,0
1594888417.883,-61.523,15.625,89.844,-44.922,0
1594888417.887,-72.266,15.137,39.062,-58.105,0
1594888417.891,-81.055,9.766,-199.707,-66.895,0
1594888417.895,-75.684,17.578,-128.906,-61.035,0
1594888417.899,-71.289,12.207,64.453,-67.383,0
1594888417.902,-80.078,10.742,114.746,-74.707,0
1594888417.906,-83.496,8.301,63.477,-62.012,0
1594888417.910,-85.449,-5.371,-383.789,-58.594,0
1594888417.914,-81.543,8.789,-189.941,-55.664,0
1594888417.918,-75.195,14.160,157.715,-55.176,0
1594888417.931,-83.984,3.906,67.871,-60.059,0
1594888417.935,-91.309,1.465,-49.316,-50.781,0
1594888417.939,-82.031,8.789,-52.734,-37.598,0
1594888417.943,-75.684,10.254,83.008,-37.598,0
1594888417.947,-76.660,9.766,4.395,-39.062,0
1594888417.951,-77.637,17.090,-178.223,-40.039,0
1594888417.955,-81.055,16.602,-280.273,-39.551,0
1594888417.958,-78.125,20.508,-175.293,-34.180,0
1594888417.962,-78.613,19.531,20.996,-46.387,0
1594888417.966,-84.473,14.160,-137.207,-58.594,0
1594888417.970,-85.449,19.531,-267.578,-59.570,0
1594888417.974,-81.543,18.066,-218.262,-65.430,0
1594888417.969,-78.125,23.926,42.969,-70.801,0
1594888417.973,-82.520,25.391,20.020,-67.871,0
1594888417.977,-76.660,22.949,-24.902,-62.500,0
1594888417.981,-63.965,18.066,34.668,-65.918,0
1594888417.985,-57.617,11.719,-199.219,-66.895,0
1594888417.989,-63.965,13.672,-280.762,-61.035,0
1594888417.993,-70.801,16.113,-309.570,-62.012,0
1594888417.996,-61.523,18.066,-76.660,-69.336,0
1594888418.000,-59.570,6.836,70.312,-67.383,0
1594888418.004,-70.801,-1.465,-333.008,-63.477,0
1594888418.008,-83.496,10.254,-129.395,-68.848,0
1594888418.012,-92.773,2.441,53.223,-71.777,0
1594888418.025,-84.961,-1.465,-55.664,-69.336,0
1594888418.029,-84.961,1.953,-179.199,-57.129,0
1594888418.033,-88.867,6.836,-218.750,-50.293,0
1594888418.037,-76.172,9.766,-66.895,-46.387,0
1594888418.041,-69.336,0.977,8.789,-50.293,0
1594888418.045,-75.195,-10.742,-84.473,-59.570,0
1594888418.049,-72.754,-7.324,-326.660,-52.246,0
1594888418.052,-72.266,1.953,-368.164,-43.945,0
1594888418.056,-66.895,8.789,-70.801,-50.781,0
1594888418.060,-70.312,7.324,96.191,-50.781,0
1594888418.064,-85.938,4.883,4.395,-52.734,0
1594888418.068,-92.773,-2.930,-231.934,-60.059,0
1594888418.062,-92.773,-0.488,-90.820,-63.477,0
1594888418.066,-84.473,5.859,110.840,-65.430,0
1594888418.070,-86.914,-3.906,-40.527,-79.102,0
1594888418.074,-91.309,-7.812,-243.652,-88.867,0
1594888418.078,-86.914,-8.301,-414.551,-70.312,0
1594888418.082,-78.613,-4.395,-279.297,-57.129,0
1594888418.086,-72.754,8.789,3.418,-55.176,0
1594888418.089,-79.590,11.719,73.242,-50.293,0
1594888418.093,-81.055,-3.906,-6.836,-49.316,0
1594888418.097,-68.848,-11.230,-368.652,-46.875,0
1594888418.101,-61.035,-1.465,-102.051,-41.016,0
1594888418.105,-69.336,-1.953,128.418,-40.527,0
1594888418.118,-77.637,-8.789,14.648,-41.504,0
1594888418.122,-70.801,-14.160,-6.836,-41.992,0
1594888418.126,-65.430,-10.742,6.836,-46.875,0
1594888418.130,-76.172,-9.277,-50.293,-51.758,0
1594888418.134,-83.496,-12.695,-232.910,-50.293,0
1594888418.138,-73.730,-11.719,-245.605,-41.016,0
1594888418.142,-68.848,-8.789,-287.109,-41.016,0
1594888418.145,-69.824,1.953,-468.262,-41.016,0
1594888418.149,-73.242,15.625,-198.242,-49.316,0
1594888418.153,-80.078,8.789,20.508,-57.129,0
1594888418.157,-73.730,9.766,82.031,-44.434,0
1594888418.161,-73.242,10.742,-62.500,-41.992,0
1594888418.156,-81.055,8.789,-119.629,-52.246,0
1594888418.160,-79.590,6.836,-21.973,-53.711,0
1594888418.164,-67.383,10.742,-38.574,-50.781,0
1594888418.168,-60.547,8.789,-190.918,-44.922,0
1594888418.172,-66.406,-3.418,-421.875,-36.621,0
1594888418.176,-80.566,5.371,-324.219,-40.039,0
1594888418.180,-75.684,7.812,-152.344,-44.922,0
1594888418.183,-59.082,5.371,65.430,-48.340,0
1594888418.187,-58.594,4.395,-87.402,-54.199,0
1594888418.191,-74.707,1.953,-498.535,-45.410,0
1594888418.195,-73.730,15.625,-294.922,-46.387,0
1594888418.199,-68.848,14.160,-22.461,-58.594,0
1594888418.214,-76.660,16.602,17.578,-59.570,0
1594888418.218,-76.660,18.066,-161.133,-57.617,0
1594888418.222,-75.684,10.254,-211.914,-70.801,0
1594888418.226,-73.242,10.254,72.754,-81.055,0
1594888418.230,-63.965,10.254,56.152,-76.660,0
1594888418.234,-75.684,1.465,-232.422,-90.332,0
1594888418.238,-87.891,-3.418,-373.047,-76.660,0
1594888418.241,-84.961,10.742,-214.844,-65.918,0
1594888418.245,-81.543,17.090,78.125,-83.984,0
1594888418.249,-89.844,6.348,69.824,-77.148,0
1594888418.253,-96.680,11.719,-55.664,-67.383,0
1594888418.257,-88.867,3.906,-165.527,-63.965,0
1594888418.251,-86.914,-14.648,-89.844,-61.035,0
1594888418.255,-90.332,2.441,15.625,-61.035,0
1594888418.259,-90.820,17.090,-40.527,-65.918,0
1594888418.263,-89.355,11.719,-195.801,-70.312,0
1594888418.267,-76.660,12.695,-360.352,-69.824,0
1594888418.271,-68.848,14.648,-293.457,-69.336,0
1594888418.275,-70.801,18.555,-273.438,-62.500,0
1594888418.278,-72.754,20.020,-118.164,-57.617,0
1594888418.282,-70.312,6.836,-34.180,-65.430,0
1594888418.286,-69.336,-8.789,-410.645,-63.965,0
1594888418.290,-76.660,-3.418,-330.566,-63.477,0
1594888418.294,-81.055,0.000,-54.199,-69.336,0
1594888418.306,-76.660,-2.441,48.340,-69.824,0
1594888418.310,-67.383,-1.465,38.086,-73.242,0
1594888418.314,-74.707,-5.859,-182.617,-72.266,0
1594888418.318,-84.961,4.395,-181.641,-63.477,0
1594888418.322,-74.219,13.672,23.438,-57.129,0
1594888418.326,-65.918,-2.441,-1.953,-60.059,0
1594888418.330,-68.848,-11.719,-264.648,-53.711,0
1594888418.333,-79.590,-8.301,-548.340,-41.992,0
1594888418.337,-73.242,7.324,-332.031,-45.898,0
1594888418.341,-63.965,9.766,-85.449,-50.781,0
1594888418.345,-73.242,1.953,-132.812,-48.340,0
1594888418.349,-82.031,5.371,-336.426,-43.945,0
1594888418.344,-82.031,20.508,-214.355,-51.270,0
1594888418.348,-81.055,30.273,95.703,-57.129,0
1594888418.352,-76.172,26.855,47.852,-62.012,0
1594888418.356,-73.730,14.648,-287.598,-69.336,0
1594888418.360,-74.219,7.812,-568.359,-62.012,0
1594888418.364,-68.848,8.789,-356.445,-59.570,0
1594888418.368,-64.941,7.812,-240.234,-70.312,0
1594888418.371,-72.266,0.000,-302.246,-77.148,0
1594888418.375,-84.473,-20.020,-258.789,-77.637,0
1594888418.379,-72.754,-21.484,-464.355,-64.941,0
1594888418.383,-60.547,-4.395,-212.891,-62.012,0
1594888418.387,-72.266,-12.207,11.230,-68.359,0
1594888418.400,-76.660,-20.508,-125.000,-73.242,0
1594888418.404,-66.406,-16.602,-169.434,-72.266,0
1594888418.408,-64.453,-11.719,-182.617,-58.105,0
1594888418.412,-72.266,-17.090,2.441,-55.176,0
1594888418.416,-80.078,-25.391,-69.336,-57.129,0
1594888418.420,-79.102,-26.367,-280.762,-49.805,1
1594888418.424,-74.219,-29.297,-296.875,-45.898,0
1594888418.427,-82.031,-30.273,-351.074,-51.758,0
1594888418.431,-90.820,-25.879,-274.414,-60.547,0
1594888418.435,-87.402,-27.832,-181.152,-64.941,0
1594888418.439,-83.008,-34.668,8.301,-63.965,0
1594888418.443,-84.961,-40.039,-108.887,-59.082,0
1594888418.437,-87.402,-36.621,-180.176,-55.176,0
1594888418.441,-84.961,-35.645,5.859,-61.035,0
1594888418.445,-71.777,-38.086,-20.508,-63.477,0
1594888418.449,-67.871,-39.551,-209.473,-60.547,0
1594888418.453,-74.707,-40.039,-409.180,-55.664,0
1594888418.457,-78.613,-37.109,-358.887,-56.641,0
1594888418.461,-74.219,-36.621,-164.062,-57.617,0
1594888418.464,-59.570,-38.574,83.496,-50.781,0
1594888418.468,-58.105,-45.410,82.520,-57.129,0
1594888418.472,-63.477,-48.828,-273.926,-63.965,0
1594888418.476,-63.965,-48.340,-325.195,-56.641,0
1594888418.480,-62.988,-53.711,-228.027,-50.293,0
1594888418.494,-64.453,-58.105,45.410,-47.363,0
1594888418.498,-73.242,-88.867,-164.062,-49.316,0
1594888418.502,-89.844,-97.168,-512.695,-54.199,0
1594888418.506,-100.098,-75.684,-145.508,-65.430,0
1594888418.510,-89.844,-72.754,45.898,-64.453,0
1594888418.514,-87.891,-69.824,-113.281,-66.895,0
1594888418.518,-88.867,-65.430,-308.594,-70.312,0
1594888418.521,-78.613,-58.594,-372.559,-60.059,0
1594888418.525,-78.613,-46.875,-80.078,-59.082,0
1594888418.529,-85.449,-46.387,71.289,-65.430,0
1594888418.533,-84.961,-50.293,-27.344,-68.848,0
1594888418.537,-82.520,-51.270,-213.867,-65.430,0
1594888418.532,-77.637,-27.832,3.418,-59.082,0
1594888418.536,-69.336,-11.719,65.918,-71.777,0
1594888418.540,-79.590,-11.719,-242.188,-81.055,0
1594888418.544,-88.379,-8.301,-348.145,-70.312,0
1594888418.548,-81.543,-13.184,-385.742,-69.336,0
1594888418.552,-69.336,-13.184,-291.504,-65.918,0
1594888418.556,-70.312,-9.766,-249.023,-61.523,0
1594888418.559,-76.172,-10.254,-166.504,-61.523,0
1594888418.563,-66.895,-14.160,-103.516,-56.641,0
1594888418.567,-57.617,-19.531,-367.676,-57.129,0
1594888418.571,-62.012,-3.906,-212.402,-63.477,0
1594888418.575,-73.242,-3.906,-91.797,-61.035,0
1594888418.587,-73.242,-17.578,-92.285,-56.641,0
1594888418.591,-56.641,-11.230,-19.043,-51.758,0
1594888418.595,-61.035,0.000,-44.434,-52.246,0
1594888418.599,-77.637,-0.488,20.996,-54.199,0
1594888418.603,-75.195,-9.277,-171.875,-53.223,0
1594888418.607,-68.359,-3.418,-180.176,-47.852,0
1594888418.611,-71.289,9.277,-98.633,-50.293,0
1594888418.614,-79.590,31.738,-425.293,-55.664,0
1594888418.618,-74.219,53.711,-248.535,-51.270,0
1594888418.622,-64.941,50.781,102.051,-54.199,0
1594888418.626,-64.941,38.574,48.340,-39.062,0
1594888418.630,-72.754,31.738,-260.254,-37.598,0
1594888418.625,-82.520,38.086,-263.672,-56.152,0
1594888418.629,-75.684,41.992,-201.660,-51.270,0
1594888418.633,-64.941,48.340,-183.105,-45.410,0
1594888418.637,-70.801,47.363,-210.449,-48.828,0
1594888418.641,-81.543,32.715,-474.609,-56.641,0
1594888418.645,-73.730,24.902,-297.852,-51.758,0
1594888418.649,-66.895,28.809,-184.082,-47.363,0
1594888418.652,-72.754,79.102,-265.625,-59.082,0
1594888418.656,-75.195,121.582,-287.109,-61.523,0
1594888418.660,-74.707,121.094,-498.535,-50.781,0
1594888418.664,-72.266,134.766,-199.219,-46.387,0
1594888418.668,-65.430,121.582,108.887,-48.828,0
1594888418.681,-73.730,105.469,71.777,-47.363,0
1594888418.685,-80.078,100.098,-69.824,-44.434,0
1594888418.689,-71.289,83.496,-90.820,-49.316,0
1594888418.693,-69.336,82.031,109.863,-54.199,0
1594888418.697,-77.148,82.520,18.555,-56.641,0
1594888418.701,-82.520,67.383,-161.133,-54.199,0
1594888418.705,-77.637,52.734,-312.012,-51.758,0
1594888418.708,-73.242,62.988,-241.211,-53.223,0
1594888418.712,-76.660,65.430,94.238,-58.594,0
1594888418.716,-86.914,47.852,-75.684,-56.152,0
1594888418.720,-94.727,43.457,-210.449,-59.082,0
1594888418.724,-83.496,42.480,-34.668,-58.105,0
1594888418.719,-67.383,53.711,83.496,-53.711,0
1594888418.723,-68.848,50.781,76.172,-50.293,0
1594888418.727,-74.219,32.227,-42.480,-46.387,0
1594888418.731,-70.312,23.438,-149.414,-52.246,0
1594888418.735,-64.453,13.184,-349.121,-55.664,0
1594888418.739,-74.219,17.578,-283.691,-57.617,0
1594888418.743,-83.984,23.926,-189.941,-61.035,0
1594888418.746,-75.684,19.043,-158.203,-55.664,0
1594888418.750,-73.242,15.625,-64.941,-53.223,0
1594888418.754,-87.402,5.859,-338.379,-59.570,0
1594888418.758,-100.098,6.348,-134.766,-67.383,0
1594888418.762,-94.238,3.906,127.930,-68.359,0
1594888418.759,-81.543,2.441,73.242,-65.430,0
1594888418.763,-85.449,1.465,-190.430,-71.289,0
1594888418.767,-95.215,1.465,-198.730,-68.359,0
1594888418.771,-96.191,2.441,67.871,-70.801,0
1594888418.775,-79.590,0.977,65.430,-71.777,0
1594888418.779,-68.848,0.000,-145.020,-67.871,0
1594888418.783,-77.148,-3.906,-377.930,-66.406,0
1594888418.786,-87.402,-8.301,-403.320,-55.176,0
1594888418.790,-84.961,-1.953,-203.125,-47.363,0
1594888418.794,-76.660,-8.301,11.719,-54.199,0
1594888418.798,-78.125,-10.254,-32.715,-51.270,0
1594888418.802,-82.031,-7.812,-299.316,-40.039,0
1594888418.812,-85.449,-4.883,-145.996,-47.852,0
1594888418.816,-73.730,-7.324,88.379,-53.223,0
1594888418.820,-76.660,-10.742,-16.113,-61.035,0
1594888418.824,-90.820,-16.602,-238.281,-81.543,0
1594888418.828,-84.961,-18.555,-481.934,-72.754,0
1594888418.832,-78.125,-2.930,-362.305,-59.082,0
1594888418.836,-79.102,-6.348,-222.656,-65.918,0
1594888418.839,-79.590,-11.719,-170.898,-71.777,0
1594888418.843,-81.543,-17.090,-169.434,-76.172,0
1594888418.847,-75.684,-33.203,-381.348,-76.660,0
1594888418.851,-72.266,-30.273,-61.523,-74.707,0
1594888418.855,-77.637,-32.715,77.148,-64.941,0
1594888418.869,-81.543,-41.016,-98.633,-57.617,0
1594888418.873,-81.543,-35.645,-132.324,-58.594,0
1594888418.877,-82.031,-23.926,-62.500,-64.453,0
1594888418.881,-89.355,-31.738,56.641,-70.801,0
1594888418.885,-91.797,-37.598,-115.723,-64.941,0
1594888418.889,-75.684,-29.297,-252.930,-58.105,0
1594888418.893,-71.777,-31.738,-263.672,-70.801,0
1594888418.896,-81.055,-37.598,-460.449,-78.613,0
1594888418.900,-80.078,-23.926,-317.383,-73.730,0
1594888418.904,-77.148,-19.043,-142.090,-71.777,0
1594888418.908,-70.801,-24.902,-170.410,-81.055,0
1594888418.912,-69.824,-32.227,-247.559,-81.055,0
1594888418.906,-78.613,-33.203,-243.164,-77.148,0
1594888418.910,-70.312,-22.949,-151.367,-70.312,0
1594888418.914,-56.152,-15.137,-15.137,-57.129,0
1594888418.918,-60.059,-20.508,-131.348,-56.641,0
1594888418.922,-75.195,-31.250,-469.238,-64.453,0
1594888418.926,-85.449,-25.879,-401.855,-69.824,0
1594888418.930,-75.684,-19.531,-176.758,-74.219,0
1594888418.933,-70.312,-7.812,15.137,-82.520,0
1594888418.937,-79.590,-6.348,-70.312,-86.914,0
1594888418.941,-88.379,-19.043,-538.574,-79.590,0
1594888418.945,-90.332,-7.812,-319.824,-80.566,0
1594888418.949,-85.449,-1.953,140.137,-81.543,0
1594888418.947,-85.938,-7.812,126.953,-75.195,0
1594888418.951,-88.867,-14.648,-114.746,-75.195,0
1594888418.955,-80.566,-12.695,-194.824,-66.895,0
1594888418.959,-81.055,-7.812,63.965,-68.359,0
1594888418.963,-88.867,-13.672,99.121,-76.660,0
1594888418.967,-96.191,-19.531,-157.715,-76.172,0
1594888418.971,-94.727,-13.672,-325.684,-69.336,0
1594888418.974,-84.961,-6.348,-307.617,-66.895,0
1594888418.978,-80.566,-5.371,-33.203,-71.777,0
1594888418.982,-83.984,-6.348,48.828,-68.359,0
1594888418.986,-83.984,-12.207,-69.824,-64.453,0
1594888418.990,-76.172,-13.672,-275.879,-63.477,0
1594888419.001,-66.895,8.301,-156.738,-62.012,0
1594888419.005,-64.453,15.137,50.781,-62.988,0
1594888419.009,-78.613,4.883,-127.930,-62.012,0
1594888419.013,-77.637,-4.395,-289.062,-53.711,0
1594888419.017,-73.242,-11.230,-417.969,-43.945,0
1594888419.021,-71.289,-6.348,-386.230,-44.434,0
1594888419.025,-75.195,0.488,-198.242,-49.316,0
1594888419.028,-77.637,-1.953,3.418,-56.152,0
1594888419.032,-63.477,-9.766,-18.066,-62.500,0
1594888419.036,-56.152,-15.625,-327.148,-55.664,0
1594888419.040,-68.359,-9.766,-123.047,-63.965,0
1594888419.044,-77.637,-19.043,-95.215,-65.430,0
1594888419.056,-74.707,-28.809,-39.062,-56.152,0
1594888419.060,-73.730,-32.227,-88.379,-57.617,0
1594888419.064,-69.824,-29.297,-271.484,-59.570,0
1594888419.068,-74.707,-30.273,-243.652,-63.965,0
1594888419.072,-77.637,-31.738,-144.043,-63.477,0
1594888419.076,-71.777,-33.203,-56.641,-61.035,0
1594888419.080,-77.148,-40.527,-247.559,-60.059,0
1594888419.083,-90.820,-45.410,-519.043,-51.270,0
1594888419.087,-89.844,-37.109,-230.469,-54.199,0
1594888419.091,-70.801,-32.715,98.145,-48.340,0
1594888419.095,-67.383,-38.086,100.098,-44.922,0
1594888419.099,-76.172,-45.410,-200.684,-45.898,0
1594888419.094,-72.754,-40.039,-213.379,-44.922,0
1594888419.098,-66.406,-39.062,28.809,-50.781,0
1594888419.102,-71.777,-48.828,22.461,-45.410,0
1594888419.106,-84.473,-53.223,-236.328,-48.828,0
1594888419.110,-90.332,-55.176,-469.238,-64.941,0
1594888419.114,-76.660,-47.363,-289.062,-56.152,0
1594888419.118,-60.547,-36.621,-151.367,-51.758,0
1594888419.121,-65.918,-36.621,-26.855,-57.617,0
1594888419.125,-81.543,-44.922,41.016,-61.523,0
1594888419.129,-83.496,-55.176,-389.648,-66.406,0
1594888419.133,-78.125,-42.480,-264.160,-68.848,0
1594888419.137,-87.402,-36.621,49.316,-67.383,0
1594888419.150,-86.426,-35.645,-23.926,-60.547,0
1594888419.154,-82.520,-31.250,-165.039,-54.199,0
1594888419.158,-85.449,-34.668,-133.789,-53.711,0
1594888419.162,-75.195,-37.598,40.039,-55.664,0
1594888419.166,-70.312,-38.086,-9.277,-55.176,0
1594888419.170,-81.543,-36.133,-202.148,-49.316,0
1594888419.174,-83.984,-36.621,-307.617,-41.992,0
1594888419.177,-80.566,-32.227,-278.809,-46.875,0
1594888419.181,-89.844,-26.855,-132.324,-57.617,0
1594888419.185,-93.262,-29.785,-201.172,-57.129,0
1594888419.189,-90.820,-27.344,-93.262,-55.664,0
1594888419.193,-95.703,-28.809,-1.465,-63.477,0
1594888419.187,-96.191,-26.367,-50.781,-65.430,0
1594888419.191,-91.309,-15.137,4.883,-61.035,0
1594888419.195,-88.867,-10.254,38.574,-67.871,0
1594888419.199,-81.055,-17.578,-142.090,-68.848,0
1594888419.203,-78.613,-30.762,-409.668,-57.617,0
1594888419.207,-87.891,-24.902,-343.262,-50.293,0
1594888419.211,-87.402,-16.113,-126.465,-55.664,0
1594888419.214,-70.801,-17.578,115.234,-69.336,0
1594888419.218,-61.035,-22.949,53.223,-69.824,0
1594888419.222,-63.965,-34.180,-391.602,-57.617,0
1594888419.226,-65.430,-21.484,-224.121,-55.664,0
1594888419.230,-62.012,-10.742,44.922,-55.664,0
1594888419.228,-61.035,-16.602,91.797,-45.898,0
1594888419.232,-77.637,-24.414,-74.707,-37.109,0
1594888419.236,-95.703,-26.855,-267.090,-29.297,0
1594888419.240,-96.680,-29.297,-39.551,-30.273,0
1594888419.244,-90.332,-32.715,74.219,-29.785,0
1594888419.248,-91.309,-26.855,-175.781,-31.738,0
1594888419.252,-92.285,-30.273,-359.863,-37.598,0
1594888419.255,-85.938,-29.785,-327.637,-42.480,0
1594888419.259,-78.125,-21.484,-92.285,-50.781,0
1594888419.263,-76.660,-20.508,62.012,-54.688,0
1594888419.267,-85.449,-19.531,38.574,-62.500,1
1594888419.271,-74.707,-24.902,-278.809,-54.688,0
1594888419.281,-60.059,-24.902,-185.547,-37.598,0
1594888419.285,-65.918,-25.879,15.137,-44.922,0
1594888419.289,-72.754,-30.762,-240.234,-55.664,0
1594888419.293,-73.242,-27.344,-345.215,-58.105,0
1594888419.297,-80.078,-22.461,-442.383,-55.664,0
1594888419.301,-82.031,-19.531,-361.816,-59.082,0
1594888419.305,-81.543,-17.090,-186.035,-61.523,0
1594888419.308,-91.797,-15.625,-176.758,-55.664,0
1594888419.312,-83.984,-21.973,-175.293,-60.547,0
1594888419.316,-67.383,-24.414,-310.059,-60.059,0
1594888419.320,-65.430,-12.695,-154.297,-60.059,0
1594888419.324,-70.801,-15.625,-178.711,-72.266,0
1594888419.357,-74.219,-13.184,-114.258,-73.242,0
1594888419.361,-70.801,-16.602,89.844,-65.430,0
1594888419.365,-66.895,-9.766,79.590,-62.500,0
1594888419.369,-69.824,4.883,73.242,-62.500,0
1594888419.373,-75.195,-9.277,-133.789,-65.430,0
1594888419.377,-64.453,-12.695,-83.496,-68.359,0
1594888419.381,-57.617,-11.719,-58.105,-69.824,0
1594888419.384,-68.848,-10.742,-344.727,-75.684,0
1594888419.388,-74.219,5.371,-24.902,-77.148,0
1594888419.392,-61.523,10.254,30.762,-66.406,0
1594888419.396,-65.430,8.301,-71.777,-69.824,0
1594888419.400,-86.426,3.906,-104.980,-75.195,0
1594888419.375,-93.750,3.906,-213.867,-74.219,0
1594888419.379,-83.496,5.859,-184.082,-72.266,0
1594888419.383,-75.684,8.789,-188.965,-67.871,0
1594888419.387,-82.520,17.578,-245.117,-72.754,0
1594888419.391,-90.820,21.484,-367.188,-77.637,0
1594888419.395,-87.402,23.926,-314.941,-71.289,0
1594888419.399,-76.660,29.785,-201.172,-66.406,0
1594888419.402,-77.148,32.227,-135.254,-70.801,0
1594888419.406,-84.473,26.855,-275.391,-83.008,0
1594888419.410,-83.496,27.344,-449.219,-75.195,0
1594888419.414,-83.008,39.062,-30.762,-64.941,0
1594888419.418,-77.637,32.227,98.633,-67.871,0
1594888419.431,-72.754,19.043,15.625,-66.406,0
1594888419.435,-84.473,16.602,-50.781,-62.012,0
1594888419.439,-84.473,13.672,-457.031,-55.176,0
1594888419.443,-71.289,14.160,-288.086,-60.059,0
1594888419.447,-72.266,-0.977,-100.098,-64.453,0
1594888419.451,-83.008,-20.996,-256.348,-60.059,0
1594888419.455,-79.590,-19.043,-327.148,-66.406,0
1594888419.458,-73.730,-14.160,-301.758,-74.219,0
1594888419.462,-78.125,-13.184,-103.027,-70.801,0
1594888419.466,-82.520,-13.672,-119.141,-65.918,0
1594888419.470,-74.707,-14.648,-179.199,-57.129,0
1594888419.474,-73.242,-25.391,-287.109,-55.176,0
1594888419.469,-77.148,-23.438,-109.863,-77.637,0
1594888419.473,-74.219,-20.996,92.285,-81.543,0
1594888419.477,-80.078,-38.086,-88.867,-74.707,0
1594888419.481,-78.125,-42.480,-280.762,-78.125,0
1594888419.485,-74.707,-33.203,-321.777,-78.125,0
1594888419.489,-79.590,-32.715,-291.504,-82.520,0
1594888419.493,-83.984,-34.668,-283.203,-85.938,0
1594888419.496,-78.613,-29.297,-20.508,-78.125,0
1594888419.500,-68.359,-35.645,25.879,-63.477,0
1594888419.504,-72.266,-40.527,-375.488,-57.617,0
1594888419.508,-88.867,-27.344,-89.355,-66.895,0
1594888419.512,-92.773,-25.391,152.832,-64.453,0
1594888419.525,-82.520,-30.273,97.656,-61.035,0
1594888419.529,-83.984,-36.133,-68.359,-60.059,0
1594888419.533,-88.867,-30.273,-169.434,-59.082,0
1594888419.537,-89.355,-20.996,-83.984,-63.477,0
1594888419.541,-86.426,-21.484,-47.363,-59.570,0
1594888419.545,-78.613,-21.484,-140.137,-61.035,0
1594888419.549,-83.008,-25.879,-337.891,-66.406,0
1594888419.552,-80.566,-21.484,-499.023,-59.082,0
1594888419.556,-71.777,-10.742,-232.910,-58.594,0
1594888419.560,-71.777,-14.648,36.133,-63.477,0
1594888419.564,-72.754,-21.484,-57.617,-58.594,0
1594888419.568,-74.219,-17.578,-280.762,-53.711,0
1594888419.562,-72.754,-13.672,-248.535,-60.059,0
1594888419.566,-66.895,-17.578,-50.781,-56.152,0
1594888419.570,-64.941,-26.367,-45.898,-50.781,0
1594888419.574,-65.918,-24.902,-160.645,-45.410,0
1594888419.578,-65.430,-25.391,-359.863,-29.785,0
1594888419.582,-58.105,-21.973,-342.773,-34.180,0
1594888419.586,-57.129,-17.578,-216.309,-38.086,0
1594888419.589,-69.824,-18.555,-166.992,-37.109,0
1594888419.593,-75.684,-27.344,-154.297,-43.457,0
1594888419.597,-64.941,-35.156,-392.578,-37.598,0
1594888419.601,-64.941,-25.391,-167.969,-29.297,0
1594888419.605,-72.266,-22.461,31.250,-30.273,0
1594888419.619,-76.660,-33.203,-114.746,-38.574,0
1594888419.623,-71.777,-44.922,-61.035,-35.645,0
1594888419.627,-66.406,-36.621,-37.109,-37.598,0
1594888419.631,-79.102,-32.715,39.062,-41.992,0
1594888419.635,-99.121,-36.621,-101.562,-33.691,0
1594888419.639,-103.027,-31.738,-251.465,-29.297,0
1594888419.643,-94.727,-35.156,-272.949,-24.414,0
1594888419.646,-94.727,-37.109,-405.273,-25.391,0
1594888419.650,-96.680,-18.555,-174.316,-28.809,0
1594888419.654,-91.309,-3.418,57.617,-24.902,0
1594888419.658,-86.426,-2.930,42.969,-32.227,0
1594888419.662,-85.449,-14.160,-80.078,-39.062,0
1594888419.656,-84.961,-8.789,-187.988,-41.992,0
1594888419.660,-79.102,3.906,-141.602,-46.387,0
1594888419.664,-73.730,2.441,-56.152,-40.527,0
1594888419.668,-75.195,0.977,-66.895,-32.715,0
1594888419.672,-74.707,0.000,-351.074,-32.715,0
1594888419.676,-77.637,12.207,-321.289,-41.992,0
1594888419.680,-70.801,12.695,-208.008,-48.340,0
1594888419.683,-64.941,-5.859,-47.363,-52.734,0
1594888419.687,-70.801,-15.137,-0.488,-59.570,0
1594888419.691,-77.148,-13.672,-455.566,-61.035,0
1594888419.695,-77.148,3.906,-392.090,-61.523,0
1594888419.699,-71.289,12.695,-52.734,-71.289,0
1594888419.697,-64.941,5.371,80.566,-80.078,0
1594888419.701,-71.289,-7.324,-119.629,-85.938,0
1594888419.705,-73.730,-6.836,-271.484,-83.984,0
1594888419.709,-64.941,0.977,44.434,-74.707,0
1594888419.713,-65.430,-10.742,92.773,-73.730,0
1594888419.717,-75.195,-29.785,-139.160,-77.148,0
1594888419.721,-81.055,-41.504,-341.309,-68.359,0
1594888419.724,-77.148,-32.227,-349.121,-58.105,0
1594888419.728,-78.125,-23.438,14.648,-67.383,0
1594888419.732,-83.984,-33.691,13.672,-65.918,0
1594888419.736,-85.449,-34.180,-242.188,-64.453,0
1594888419.740,-86.426,-39.551,-237.305,-64.453,0
1594888419.751,-75.684,-49.316,-105.957,-57.617,0
1594888419.755,-70.312,-50.293,-197.266,-63.965,0
1594888419.759,-78.613,-51.270,-241.211,-62.500,0
1594888419.763,-84.473,-51.270,-247.559,-53.223,0
1594888419.767,-82.520,-57.129,-395.996,-53.223,0
1594888419.771,-81.543,-56.152,-397.949,-52.246,0
1594888419.775,-89.355,-49.316,-215.820,-54.199,0
1594888419.778,-94.727,-51.758,-109.375,-58.594,0
1594888419.782,-83.008,-63.965,-35.645,-64.941,0
1594888419.786,-81.055,-62.500,-245.605,-69.824,0
1594888419.790,-91.797,-49.316,-132.812,-73.730,0
1594888419.794,-89.844,-53.223,-113.281,-71.777,0
1594888419.806,-80.078,-55.176,-33.203,-62.500,0
1594888419.810,-72.266,-55.664,17.090,-68.359,0
1594888419.814,-70.312,-56.641,-175.781,-75.195,0
1594888419.818,-80.566,-54.199,-222.168,-72.754,0
1594888419.822,-77.637,-55.176,-217.285,-73.242,0
1594888419.826,-66.895,-61.035,-197.754,-65.918,0
1594888419.830,-72.754,-62.988,-286.133,-57.129,0
1594888419.833,-83.496,-58.105,-447.754,-54.199,0
1594888419.837,-82.520,-43.945,-286.621,-56.641,0
1594888419.841,-75.195,-37.598,-105.469,-53.711,0
1594888419.845,-71.289,-41.992,-47.852,-51.270,0
1594888419.849,-80.566,-53.711,-229.004,-53.223,0
1594888419.844,-93.750,-56.641,-257.812,-54.199,0
1594888419.848,-82.031,-42.480,-90.820,-52.246,0
1594888419.852,-73.730,-37.598,21.484,-53.711,0
1594888419.856,-75.684,-40.527,-145.020,-50.781,0
1594888419.860,-71.777,-43.945,-481.934,-42.969,0
1594888419.864,-66.895,-38.574,-371.094,-38.574,0
1594888419.868,-58.105,-27.832,-152.832,-46.875,0
1594888419.871,-56.152,-23.438,-174.805,-59.082,0
1594888419.875,-55.176,-27.344,-180.664,-48.828,0
1594888419.879,-52.734,-39.062,-424.316,-46.875,0
1594888419.883,-52.246,-33.691,-307.617,-60.059,0
1594888419.887,-54.199,-26.367,-73.242,-61.035,0
1594888419.900,-67.383,-33.203,-44.922,-61.523,0
1594888419.904,-70.312,-41.016,-128.418,-63.477,0
1594888419.908,-68.848,-47.852,-121.582,-65.918,0
1594888419.912,-71.777,-55.176,40.527,-69.824,0
1594888419.916,-74.707,-62.988,9.766,-68.848,0
1594888419.920,-78.613,-65.430,-166.504,-68.359,0
1594888419.924,-71.289,-63.965,-233.887,-75.195,0
1594888419.927,-73.242,-70.801,-252.930,-75.195,0
1594888419.931,-95.215,-65.918,-60.059,-83.008,0
1594888419.935,-94.727,-67.871,-129.883,-79.102,0
1594888419.939,-86.426,-66.895,-149.414,-76.172,0
1594888419.943,-86.426,-70.312,-15.625,-78.613,0
1594888419.937,-84.473,-72.754,43.945,-79.102,0
1594888419.941,-93.262,-74.707,111.328,-83.496,0
1594888419.945,-91.797,-78.125,43.945,-80.566,0
1594888419.949,-79.590,-68.848,30.273,-78.125,0
1594888419.953,-74.707,-69.824,-147.461,-71.289,0
1594888419.957,-75.195,-69.336,-132.812,-71.777,0
1594888419.961,-80.566,-60.059,93.750,-75.684,0
1594888419.964,-81.055,-56.152,180.176,-69.824,0
1594888419.968,-82.031,-62.500,144.531,-68.848,0
1594888419.972,-92.773,-76.660,-283.203,-72.266,0
1594888419.976,-94.727,-70.801,-237.305,-72.266,0
1594888419.980,-76.172,-68.359,64.941,-76.660,0
1594888419.978,-62.012,-75.195,128.906,-79.102,0
1594888419.982,-63.477,-83.008,16.602,-73.242,0
1594888419.986,-73.730,-88.379,-161.133,-66.406,0
1594888419.990,-68.359,-88.867,24.902,-66.895,0
1594888419.994,-71.289,-96.191,90.820,-68.359,0
1594888419.998,-87.891,-104.004,-77.148,-67.383,2
1594888420.002,-88.867,-98.633,-249.023,-73.730,0
1594888420.005,-81.055,-92.285,-87.891,-80.078,0
1594888420.009,-72.754,-98.633,130.371,-77.148,0
1594888420.013,-68.848,-103.027,-22.949,-81.543,0
1594888420.017,-68.848,-100.586,-80.078,-79.590,0
1594888420.021,-72.266,-104.004,-281.738,-74.707,0
1594888420.031,-75.684,-93.262,-318.359,-71.777,0
1594888420.035,-80.078,-86.426,-0.977,-72.266,0
1594888420.039,-94.238,-84.961,-78.613,-67.871,0
1594888420.043,-104.004,-79.102,-289.551,-58.105,0
1594888420.047,-98.633,-89.355,-412.598,-51.270,0
1594888420.051,-88.379,-80.078,-323.242,-52.246,0
1594888420.055,-83.984,-62.988,-166.504,-59.082,0
1594888420.058,-87.891,-61.035,-169.434,-57.129,0
1594888420.062,-80.566,-64.941,-102.051,-58.594,0
1594888420.066,-65.918,-65.430,-241.211,-58.105,0
1594888420.070,-58.594,-48.828,-94.727,-60.547,0
1594888420.074,-66.895,-40.527,7.324,-69.336,0
1594888420.087,-76.172,-33.691,-66.406,-70.312,0
1594888420.091,-76.172,-36.621,-153.320,-68.359,0
1594888420.095,-74.707,-50.293,-197.754,-62.012,0
1594888420.099,-74.707,-49.316,-6.348,-62.500,0
1594888420.103,-74.219,-39.062,-9.277,-63.965,0
1594888420.107,-67.871,-33.203,-142.578,-65.918,0
1594888420.111,-60.059,-36.133,-274.902,-72.754,0
1594888420.114,-67.871,-29.785,-463.379,-72.266,0
1594888420.118,-77.148,-14.160,-215.820,-65.918,0
1594888420.122,-79.590,-10.742,76.172,-67.383,0
1594888420.126,-79.102,-11.230,68.359,-73.242,0
1594888420.130,-86.426,-17.578,-123.535,-68.359,0
1594888420.125,-102.539,-6.836,-20.996,-67.383,0
1594888420.129,-96.191,0.488,114.258,-63.965,0
1594888420.133,-80.078,5.371,-21.973,-58.105,0
1594888420.137,-83.496,-103.027,-207.031,-62.500,0
1594888420.141,-91.309,-268.555,-415.039,-66.895,0
1594888420.145,-93.750,-308.594,-392.578,-72.266,0
1594888420.149,-85.938,-299.805,-160.645,-74.219,0
1594888420.152,-80.078,-301.270,59.570,-64.941,0
1594888420.156,-94.238,-294.434,-98.633,-64.941,0
1594888420.160,-103.516,-285.156,-431.641,-61.523,0
1594888420.164,-90.332,-263.672,-208.496,-54.688,0
1594888420.168,-87.891,-248.047,94.238,-61.523,0
1594888420.166,-98.633,-240.723,-22.949,-66.406,0
1594888420.170,-103.516,-228.027,-280.762,-64.941,0
1594888420.174,-97.168,-206.055,-280.273,-68.359,0
1594888420.178,-88.379,-184.570,-36.133,-77.148,0
1594888420.182,-89.355,-168.945,-50.781,-73.242,0
1594888420.186,-88.379,-163.086,-260.742,-64.453,0
1594888420.190,-86.426,-156.738,-312.988,-56.152,0
1594888420.193,-81.543,-134.766,-291.504,-55.176,0
1594888420.197,-76.660,-109.863,-10.742,-58.594,0
1594888420.201,-77.637,-101.074,64.453,-57.617,0
1594888420.205,-70.312,-97.168,27.832,-50.293,0
1594888420.209,-58.105,-84.961,-113.281,-41.992,0
1594888420.220,-51.758,-68.359,-111.816,-46.387,0
1594888420.224,-60.547,-68.848,65.430,-56.641,0
1594888420.228,-66.895,-76.172,-71.289,-56.641,0
1594888420.232,-67.871,-75.195,-211.914,-60.547,0
1594888420.236,-74.219,-82.031,-390.137,-66.406,0
1594888420.240,-85.938,-72.754,-411.621,-71.777,0
1594888420.244,-94.727,-54.199,-190.918,-84.473,0
1594888420.247,-96.680,-52.246,67.871,-80.078,0
1594888420.251,-85.938,-54.199,81.055,-57.129,0
1594888420.255,-84.961,-48.340,-164.062,-62.012,0
1594888420.259,-92.285,-34.180,-39.062,-76.172,0
1594888420.263,-79.590,-41.504,40.527,-71.777,0
1594888420.275,-64.453,-45.898,61.035,-63.477,0
1594888420.279,-56.152,-42.969,-24.902,-62.988,0
1594888420.283,-61.523,-44.434,-305.664,-71.289,0
1594888420.287,-70.801,-39.551,-220.703,-72.266,0
1594888420.291,-66.895,-45.410,-35.156,-62.012,0
1594888420.295,-61.035,-45.898,-112.305,-60.547,0
1594888420.299,-60.547,-47.363,-264.648,-65.918,0
1594888420.302,-62.012,-56.641,-479.980,-62.012,0
1594888420.306,-58.105,-41.504,-232.422,-66.406,0
1594888420.310,-58.105,-36.621,83.008,-66.406,0
1594888420.314,-67.383,-46.387,-14.160,-69.824,0
1594888420.318,-74.707,-46.875,-304.199,-65.430,0
1594888420.312,-76.660,-44.434,-169.434,-54.688,0
1594888420.316,-70.312,-44.922,78.613,-57.129,0
1594888420.320,-69.824,-52.246,-4.883,-64.453,0
1594888420.324,-81.055,-60.059,-99.121,-70.801,0
1594888420.328,-79.102,-64.941,-341.797,-77.148,0
1594888420.332,-73.242,-64.453,-273.926,-84.473,0
1594888420.336,-69.336,-61.523,-145.508,-90.332,0
1594888420.339,-76.172,-60.059,-186.035,-94.727,0
1594888420.343,-83.008,-59.082,-179.199,-93.750,0
1594888420.347,-81.055,-64.453,-372.070,-88.867,0
1594888420.351,-82.031,-56.152,-154.785,-92.773,0
1594888420.355,-84.961,-36.621,68.359,-95.703,0
1594888420.369,-88.379,-38.574,-69.336,-93.750,0
1594888420.373,-85.938,-51.758,-163.086,-94.727,0
1594888420.377,-81.543,-44.922,-121.582,-88.379,0
1594888420.381,-82.520,-47.363,69.824,-83.496,0
1594888420.385,-85.449,-58.594,-4.395,-81.543,0
1594888420.389,-78.125,-55.664,-173.828,-80.566,0
1594888420.393,-72.754,-47.363,-279.785,-83.496,0
1594888420.396,-75.684,-29.785,-373.047,-76.172,0
1594888420.400,-72.266,-15.137,-281.250,-73.242,0
1594888420.404,-67.383,-12.695,-146.973,-62.012,0
1594888420.408,-63.477,-5.371,17.090,-53.711,0
1594888420.412,-50.293,1.953,-110.352,-57.129,0
1594888420.406,-59.082,4.395,-216.797,-74.219,0
1594888420.410,-68.848,6.348,-92.773,-74.707,0
1594888420.414,-54.199,20.020,-3.418,-62.988,0
1594888420.418,-56.152,30.762,-6.836,-66.895,0
1594888420.422,-65.918,45.898,-237.305,-71.289,0
1594888420.426,-71.777,91.309,-283.691,-71.777,0
1594888420.430,-66.895,111.816,-20.508,-76.172,0
1594888420.433,-54.199,110.352,137.695,-71.777,0
1594888420.437,-61.523,110.352,2.930,-61.035,0
1594888420.441,-75.195,118.652,-349.609,-55.664,0
1594888420.445,-78.613,141.602,-248.047,-56.641,0
1594888420.449,-84.961,139.160,-97.168,-51.758,0
1594888420.447,-82.520,144.531,17.090,-43.945,0
1594888420.451,-86.426,155.273,20.020,-43.457,0
1594888420.455,-93.262,151.367,-145.508,-41.016,0
1594888420.459,-87.402,153.809,-3.418,-40.039,0
1594888420.463,-81.055,150.879,101.074,-43.945,0
1594888420.467,-82.520,143.066,-71.289,-41.016,0
1594888420.471,-85.449,131.836,-378.906,-35.156,0
1594888420.474,-76.660,127.930,-416.504,-31.250,0
1594888420.478,-69.824,128.418,-119.141,-32.227,0
1594888420.482,-76.660,114.258,-17.578,-37.598,0
1594888420.486,-82.520,104.980,-140.625,-42.969,0
1594888420.490,-70.312,97.656,-191.406,-37.109,0
1594888420.501,-60.059,98.633,10.742,-34.180,0
1594888420.505,-65.918,94.238,32.227,-31.738,0
1594888420.509,-78.125,83.984,-171.875,-32.715,0
1594888420.513,-84.473,83.496,-205.566,-39.551,0
1594888420.517,-79.102,65.430,-395.020,-38.086,0
1594888420.521,-72.754,59.570,-392.090,-30.762,0
1594888420.525,-73.730,64.453,-229.492,-34.668,0
1594888420.528,-80.078,60.059,-145.020,-32.715,0
1594888420.532,-67.871,57.129,41.504,-36.133,0
1594888420.536,-56.152,47.363,-215.332,-26.855,0
1594888420.540,-75.195,50.781,-136.230,-20.020,0
1594888420.544,-93.262,52.734,89.844,-28.320,0
1594888420.556,-89.355,46.875,64.453,-29.297,0
1594888420.560,-83.984,30.273,-21.484,-34.180,0
1594888420.564,-87.402,34.180,-168.945,-31.250,0
1594888420.568,-84.961,43.945,-128.906,-26.855,0
1594888420.572,-75.195,38.086,-52.734,-19.043,0
1594888420.576,-76.660,34.668,53.711,-25.391,0
1594888420.580,-84.473,23.438,-84.961,-38.086,0
1594888420.583,-99.609,19.043,-447.266,-30.762,0
1594888420.587,-103.516,38.574,-174.805,-26.367,0
1594888420.591,-92.285,41.504,124.512,-33.691,0
1594888420.595,-96.680,30.762,70.312,-40.039,0
1594888420.599,-108.398,24.414,-172.363,-38.574,0
1594888420.594,-110.352,24.414,-188.477,-39.062,0
1594888420.598,-99.121,27.832,71.289,-41.504,0
1594888420.602,-87.402,28.320,81.055,-43.945,0
1594888420.606,-85.449,24.414,-182.129,-43.945,0
1594888420.610,-85.449,21.484,-451.172,-41.504,0
1594888420.614,-86.426,30.762,-256.348,-51.758,0
1594888420.618,-81.055,34.180,63.477,-61.523,0
1594888420.621,-86.914,26.367,-42.969,-66.406,0
1594888420.625,-95.215,18.066,-198.242,-68.359,0
1594888420.629,-95.215,4.883,-352.051,-63.477,0
1594888420.633,-83.008,13.184,-141.113,-63.965,0
1594888420.637,-81.543,19.531,121.582,-62.500,0
1594888420.650,-84.473,13.672,69.824,-62.012,0
1594888420.654,-79.590,9.277,-67.383,-64.941,0
1594888420.658,-78.125,-0.488,-121.582,-64.453,0
1594888420.662,-76.172,-19.043,49.316,-65.430,0
1594888420.666,-83.496,-19.531,-20.996,-67.871,0
1594888420.670,-97.656,-14.160,-186.035,-71.777,0
1594888420.674,-93.750,-20.996,-298.340,-71.289,0
1594888420.677,-82.031,-20.996,-279.297,-63.477,0
1594888420.681,-82.031,-21.973,-62.988,-66.406,0
1594888420.685,-85.449,-21.484,-166.504,-59.570,0
1594888420.689,-80.078,-15.137,-148.438,-53.223,0
1594888420.693,-76.660,-20.020,-107.422,-54.199,0
1594888420.687,-83.496,-20.996,-134.766,-51.758,0
1594888420.691,-92.773,-23.926,24.414,-53.223,0
1594888420.695,-91.309,-24.902,7.324,-56.152,0
1594888420.699,-72.754,-18.066,2.441,-53.223,0
1594888420.703,-74.707,-22.949,-163.086,-52.246,0
1594888420.707,-81.543,-28.809,-264.160,-54.199,0
1594888420.711,-76.660,-35.645,-165.039,-50.781,0
1594888420.714,-69.824,-42.969,14.648,-48.828,0
1594888420.718,-69.336,-45.410,57.129,-54.199,0
1594888420.722,-80.566,-57.129,-346.680,-50.293,0
1594888420.726,-84.961,-50.293,-352.539,-46.387,1
1594888420.730,-74.707,-50.293,-80.566,-49.805,0
1594888420.744,-75.684,-53.711,101.562,-46.387,0
1594888420.748,-92.285,-56.152,-82.031,-56.641,0
1594888420.752,-93.750,-55.664,-225.098,-55.176,0
1594888420.756,-80.078,-49.805,71.777,-54.199,0
1594888420.760,-70.312,-52.734,138.184,-54.688,0
1594888420.764,-71.777,-53.223,-72.266,-40.527,0
1594888420.768,-76.660,-51.270,-224.609,-35.156,0
1594888420.771,-79.590,-52.734,-317.871,-39.551,0
1594888420.775,-79.590,-51.270,-194.824,-42.969,0
1594888420.779,-84.961,-51.270,-179.199,-41.504,0
1594888420.783,-90.820,-46.875,-285.156,-43.457,0
1594888420.787,-91.797,-40.039,-307.617,-48.828,0
1594888420.781,-83.008,-31.250,-200.684,-48.340,0
1594888420.785,-80.078,-33.203,-178.223,-49.316,0
1594888420.789,-91.309,-44.434,-237.793,-54.199,0
1594888420.793,-97.168,-48.340,-345.703,-56.152,0
1594888420.797,-83.984,-48.828,-484.375,-44.922,0
1594888420.801,-70.312,-41.504,-332.520,-39.062,0
1594888420.805,-69.824,-34.668,-174.316,-65.430,0
1594888420.808,-69.336,-34.668,-154.785,-75.684,0
1594888420.812,-62.500,-44.434,-203.613,-64.941,0
1594888420.816,-59.570,-45.898,-421.387,-60.547,0
1594888420.820,-69.336,-31.250,-164.062,-61.035,0
1594888420.824,-78.125,-30.762,-67.383,-53.223,0
1594888420.837,-81.543,-38.086,-110.840,-51.270,0
1594888420.841,-75.684,-46.387,-37.598,-48.828,0
1594888420.845,-74.219,-44.434,-69.824,-41.504,0
1594888420.849,-92.773,-43.457,-1.465,-41.016,0
1594888420.853,-101.562,-54.688,-170.410,-38.086,0
1594888420.857,-93.750,-54.199,-266.113,-44.922,0
1594888420.861,-97.656,-60.547,-341.309,-54.688,0
1594888420.864,-101.562,-60.059,-444.336,-53.223,0
1594888420.868,-96.680,-41.504,-172.852,-58.594,0
1594888420.872,-84.473,-34.180,-30.273,-49.316,0
1594888420.876,-69.824,-47.363,45.898,-51.270,0
1594888420.880,-72.754,-54.199,-105.469,-52.734,0
1594888420.875,-85.938,-41.992,-128.418,-43.945,0
1594888420.879,-95.703,-44.922,-58.105,-47.852,0
1594888420.883,-95.703,-49.316,-35.645,-50.781,0
1594888420.887,-98.633,-45.410,-74.707,-54.688,0
1594888420.891,-100.586,-41.504,-388.184,-52.246,0
1594888420.895,-92.285,-38.086,-368.652,-43.945,0
1594888420.899,-78.125,-34.180,-108.398,-53.223,0
1594888420.902,-74.707,-20.508,136.230,-62.988,0
1594888420.906,-89.844,-35.645,122.070,-63.965,0
1594888420.910,-91.309,-54.199,-369.629,-57.617,0
1594888420.914,-74.219,-28.320,-275.391,-50.781,0
1594888420.918,-64.941,-18.555,103.027,-50.293,0
1594888420.916,-70.801,-23.438,92.773,-51.270,0
1594888420.920,-74.219,-32.715,-80.566,-61.523,0
1594888420.924,-69.336,-29.297,-185.547,-57.129,0
1594888420.928,-68.848,-18.555,34.668,-51.758,0
1594888420.932,-66.406,-21.484,33.691,-50.781,0
1594888420.936,-72.754,-21.484,-190.918,-55.176,0
1594888420.940,-78.613,-21.973,-177.734,-69.824,0
1594888420.943,-67.871,-20.996,-221.191,-61.523,0
1594888420.947,-65.430,-9.766,4.395,-59.082,0
1594888420.951,-67.383,-9.766,64.941,-56.152,0
1594888420.955,-64.941,-10.254,-108.398,-54.688,0
1594888420.959,-64.941,-12.207,-118.164,-53.223,0
1594888420.970,-68.359,-16.602,-41.992,-44.434,0
1594888420.974,-85.938,-13.184,35.156,-63.965,0
1594888420.978,-104.492,-21.484,-86.426,-89.844,0
1594888420.982,-104.004,-21.973,-218.750,-86.426,0
1594888420.986,-80.566,-19.531,-372.070,-65.918,0
1594888420.990,-75.195,-16.602,-468.262,-55.664,0
1594888420.994,-88.379,-17.578,-265.625,-60.547,0
1594888420.997,-85.938,-19.043,12.695,-68.359,0
1594888421.001,-86.914,-19.531,74.219,-76.660,0
1594888421.005,-84.961,-31.738,-291.504,-65.918,0
1594888421.009,-80.078,-23.926,-254.883,-61.035,0
1594888421.013,-77.148,-16.113,-145.996,-63.477,0
1594888421.025,-74.219,-17.090,1.953,-60.059,0
1594888421.029,-82.031,-21.484,108.887,-66.406,0
1594888421.033,-94.238,-20.508,-187.500,-69.824,0
1594888421.037,-91.797,-16.113,-296.387,-61.523,0
1594888421.041,-78.125,-21.484,-74.707,-60.547,0
1594888421.045,-69.336,-24.414,-18.555,-64.453,0
1594888421.049,-71.289,-36.621,-249.023,-57.617,0
1594888421.052,-76.660,-46.875,-465.332,-50.293,0
1594888421.056,-81.543,-36.621,-156.738,-59.082,0
1594888421.060,-71.777,-35.645,121.094,-57.129,0
1594888421.064,-72.266,-41.016,79.590,-56.152,0
1594888421.068,-82.520,-44.434,-176.270,-57.617,0
1594888421.062,-81.543,-35.645,-184.570,-52.246,0
1594888421.066,-78.125,-33.691,38.086,-53.711,0
1594888421.070,-83.008,-46.875,-31.738,-57.617,0
1594888421.074,-96.191,-51.758,-240.234,-60.547,0
1594888421.078,-95.215,-50.781,-408.691,-55.664,0
1594888421.082,-87.891,-49.805,-287.598,-58.594,0
1594888421.086,-90.820,-53.223,-67.383,-61.035,0
1594888421.089,-95.703,-48.340,-90.332,-57.617,0
1594888421.093,-95.215,-43.945,8.789,-55.176,0
1594888421.097,-83.984,-61.523,-318.359,-41.992,0
1594888421.101,-82.520,-54.199,-288.086,-38.574,0
1594888421.105,-84.473,-39.062,86.914,-47.852,0
1594888421.119,-90.820,-49.316,37.109,-47.852,0
1594888421.123,-86.914,-53.711,-29.297,-59.570,0
1594888421.127,-74.707,-43.457,-17.090,-69.336,0
1594888421.131,-81.055,-37.109,17.578,-61.523,0
1594888421.135,-95.215,-37.109,17.090,-58.105,0
1594888421.139,-97.656,-40.527,14.648,-58.594,0
1594888421.143,-86.426,-45.410,-79.102,-57.129,0
1594888421.146,-88.867,-48.340,-316.406,-58.105,0
1594888421.150,-98.145,-38.574,-231.445,-59.082,0
1594888421.154,-91.309,-38.574,-213.379,-50.293,0
1594888421.158,-85.449,-41.504,-70.312,-51.758,0
1594888421.162,-85.938,-44.434,-72.266,-58.105,0
1594888421.175,-85.938,-38.086,-239.258,-50.781,0
1594888421.179,-95.703,-33.203,-72.754,-46.875,0
1594888421.183,-101.562,-37.109,10.254,-49.805,0
1594888421.187,-89.844,-35.645,-189.941,-48.828,0
1594888421.191,-85.938,-29.785,-383.789,-47.852,0
1594888421.195,-96.680,-20.508,-354.492,-49.805,0
1594888421.199,-93.262,-17.090,-191.895,-44.922,0
1594888421.202,-81.543,-17.090,66.406,-33.203,0
1594888421.206,-84.473,-19.531,59.082,-36.621,0
1594888421.210,-97.168,-29.785,-388.672,-37.109,0
1594888421.214,-105.957,-26.855,-216.797,-40.527,0
1594888421.218,-100.586,-23.438,57.617,-54.688,0
1594888421.197,-96.191,-16.113,-18.555,-55.664,0
1594888421.201,-102.051,-14.648,-140.625,-55.176,0
1594888421.205,-100.586,-8.789,-224.609,-52.246,0
1594888421.209,-87.402,13.184,41.504,-47.363,0
1594888421.213,-76.660,14.160,52.734,-49.805,0
1594888421.217,-84.473,6.836,-208.984,-54.688,0
1594888421.221,-93.262,9.277,-332.031,-66.406,0
1594888421.224,-78.613,18.066,-209.473,-58.594,0
1594888421.228,-70.312,20.020,-18.066,-48.340,0
1594888421.232,-80.078,17.090,37.109,-52.246,0
1594888421.236,-91.797,20.020,24.414,-42.969,0
1594888421.240,-96.680,40.527,-156.738,-46.875,0
1594888421.250,-93.262,64.941,-136.719,-50.781,0
1594888421.254,-98.145,62.012,125.488,-52.734,0
1594888421.258,-103.516,47.363,-45.898,-62.988,0
1594888421.262,-96.191,48.340,-234.863,-62.500,0
1594888421.266,-79.590,44.434,-420.410,-61.035,0
1594888421.270,-82.031,46.875,-434.082,-67.383,0
1594888421.274,-86.426,52.246,-195.801,-50.781,0
1594888421.277,-75.684,46.387,-33.691,-41.992,0
1594888421.281,-65.918,45.898,63.477,-46.875,0
1594888421.285,-74.707,39.062,-172.363,-53.711,0
1594888421.289,-84.473,36.133,-40.039,-56.641,0
1594888421.293,-85.938,30.762,25.879,-55.664,0
1594888421.306,-81.055,28.809,85.938,-53.223,0
1594888421.310,-74.219,21.973,112.793,-50.293,0
1594888421.314,-83.984,16.113,-130.371,-57.129,0
1594888421.318,-88.379,11.719,-57.617,-59.570,0
1594888421.322,-84.961,9.766,72.266,-50.781,0
1594888421.326,-80.566,9.277,140.625,-49.316,0
1594888421.330,-80.078,-1.465,61.523,-45.898,0
1594888421.333,-84.473,-20.020,-246.582,-40.527,0
1594888421.337,-78.613,-6.348,7.812,-40.039,0
1594888421.341,-66.895,-1.465,227.051,-36.621,0
1594888421.345,-75.684,-11.719,174.316,-41.504,0
1594888421.349,-85.449,-9.766,39.551,-46.387,0
1594888421.344,-88.379,-3.418,3.418,-48.340,0
1594888421.348,-76.172,0.977,111.816,-48.828,0
1594888421.352,-67.871,-12.695,98.633,-58.594,0
1594888421.356,-85.449,-20.020,-53.711,-61.035,0
1594888421.360,-100.098,-17.578,-322.266,-58.105,0
1594888421.364,-92.285,-12.207,-241.211,-51.270,0
1594888421.368,-84.961,-5.371,-62.012,-49.805,0
1594888421.371,-87.402,-7.812,30.762,-51.758,0
1594888421.375,-93.262,-17.090,-71.777,-53.711,0
1594888421.379,-97.656,-27.344,-401.367,-61.035,0
1594888421.383,-86.426,-12.695,-160.645,-60.547,0
1594888421.387,-77.637,-7.324,134.277,-67.383,0
1594888421.400,-75.684,-17.578,-92.285,-82.031,0
1594888421.404,-77.148,-12.207,-141.113,-79.590,0
1594888421.408,-66.895,-5.859,-36.133,-69.336,0
1594888421.412,-58.594,-9.766,86.914,-61.523,0
1594888421.416,-68.359,-7.812,66.895,-55.176,0
1594888421.420,-81.543,-6.348,-164.551,-53.711,0
1594888421.424,-79.102,-11.719,-260.742,-50.293,0
1594888421.427,-74.707,-13.184,-256.836,-52.734,0
1594888421.431,-88.379,-4.883,-5.371,-56.152,0
1594888421.435,-93.262,9.277,81.055,-56.152,0
1594888421.439,-86.426,18.066,27.832,-54.199,0
1594888421.443,-86.426,20.996,-100.586,-57.129,0
1594888421.439,-93.262,22.949,-119.141,-55.176,0
1594888421.443,-91.309,18.555,-31.250,-49.316,0
1594888421.447,-81.055,9.766,-193.848,-56.641,0
1594888421.451,-74.707,0.488,-223.633,-54.688,0
1594888421.455,-72.266,1.953,-317.383,-45.410,0
1594888421.459,-83.008,19.531,-335.938,-52.734,0
1594888421.463,-88.867,15.137,-193.359,-60.547,0
1594888421.466,-83.496,7.324,53.223,-58.105,0
1594888421.470,-79.590,-0.488,66.406,-51.270,0
1594888421.474,-75.195,-7.812,-361.816,-35.645,0
1594888421.478,-80.566,4.883,-288.574,-36.133,0
1594888421.482,-82.520,6.836,-77.637,-45.410,0
1594888421.494,-70.801,-1.465,-50.293,-48.340,0
1594888421.498,-75.684,-12.207,-82.520,-49.805,0
1594888421.502,-89.355,-8.789,-209.961,-50.293,0
1594888421.506,-87.891,0.488,-22.461,-48.828,0
1594888421.510,-83.008,-8.789,154.785,-49.316,0
1594888421.514,-82.520,-16.602,36.133,-60.547,0
1594888421.518,-83.008,-9.277,-242.188,-60.547,0
1594888421.521,-83.496,-15.625,-425.781,-53.223,0
1594888421.525,-80.566,-12.207,-83.008,-62.500,0
1594888421.529,-73.242,-4.395,109.863,-69.336,0
1594888421.533,-80.078,-11.719,-28.320,-62.012,0
1594888421.537,-93.750,-21.973,-199.707,-56.152,0
1594888421.531,-85.449,-11.719,7.812,-55.664,0
1594888421.535,-76.172,-14.160,172.852,-60.547,0
1594888421.539,-89.844,-27.344,-2.930,-60.059,0
1594888421.543,-102.051,-31.738,-311.035,-56.152,0
1594888421.547,-98.633,-35.645,-483.887,-57.129,0
1594888421.551,-95.215,-27.832,-266.602,-57.129,0
1594888421.555,-101.562,-26.367,-235.352,-63.965,0
1594888421.558,-103.516,-26.367,-118.164,-62.012,0
1594888421.562,-94.238,-26.367,61.523,-58.105,2
1594888421.566,-84.473,-36.621,-307.617,-51.758,0
1594888421.570,-89.355,-24.902,-199.219,-49.316,0
1594888421.574,-97.656,-19.043,-69.336,-43.945,0
1594888421.587,-88.379,-20.996,-131.348,-41.504,0
1594888421.591,-69.336,-15.625,10.742,-58.594,0
1594888421.595,-67.383,-15.137,5.371,-65.430,0
1594888421.599,-65.430,-11.230,70.312,-60.059,0
1594888421.603,-59.570,-14.160,62.012,-55.664,0
1594888421.607,-53.711,-21.973,-108.398,-55.664,0
1594888421.611,-48.828,-25.879,-203.125,-57.617,0
1594888421.614,-61.523,-29.297,-327.148,-58.105,0
1594888421.618,-84.473,-21.484,-145.996,-49.805,0
1594888421.622,-93.262,-20.508,80.078,-43.945,0
1594888421.626,-91.797,-16.602,112.793,-40.527,0
1594888421.630,-93.262,-19.043,-67.871,-36.621,0
1594888421.625,-94.238,-11.230,-187.988,-40.039,0
1594888421.629,-87.402,-6.348,33.203,-43.945,0
1594888421.633,-81.055,-12.695,30.273,-42.480,0
1594888421.637,-88.867,-14.160,-220.703,-46.875,0
1594888421.641,-98.145,-21.484,-413.086,-48.340,0
1594888421.645,-94.727,-18.555,-379.395,-45.410,0
1594888421.649,-85.938,-13.672,-168.945,-47.363,0
1594888421.652,-76.172,-14.160,74.707,-44.922,0
1594888421.656,-78.125,-13.672,54.199,-51.758,0
1594888421.660,-83.984,-19.531,-423.340,-54.199,0
1594888421.664,-72.266,-9.277,-337.891,-54.688,0
1594888421.668,-68.848,4.395,6.836,-57.129,0
1594888421.682,-76.660,-3.418,92.285,-61.523,0
1594888421.686,-84.961,-15.137,-83.496,-70.801,0
1594888421.690,-93.750,-15.137,-238.281,-78.613,0
1594888421.694,-82.031,-6.836,36.621,-86.914,0
1594888421.698,-73.242,-6.348,52.734,-85.449,0
1594888421.702,-75.195,-7.812,-161.621,-97.168,0
1594888421.706,-74.707,-9.766,-264.648,-100.586,0
1594888421.709,-77.148,-8.301,-329.102,-83.008,0
1594888421.713,-77.637,3.906,-33.203,-91.309,0
1594888421.717,-82.520,1.465,-6.348,-106.445,0
1594888421.721,-83.984,-5.859,-27.832,-102.051,0
1594888421.725,-78.613,-2.930,23.438,-102.539,0
1594888421.720,-83.496,0.488,29.785,-111.328,0
1594888421.724,-93.750,-6.836,-87.891,-111.816,0
1594888421.728,-96.191,-10.742,-269.531,-101.562,0
1594888421.732,-94.238,-6.836,-228.027,-99.121,0
1594888421.736,-84.473,-5.371,-260.742,-92.773,0
1594888421.740,-77.637,2.441,-315.430,-89.355,0
1594888421.744,-87.891,6.348,-111.328,-97.168,0
1594888421.747,-85.938,-8.301,163.574,-79.102,0
1594888421.751,-70.312,-14.648,143.555,-62.988,0
1594888421.755,-77.637,-13.672,-283.691,-65.918,0
1594888421.759,-92.285,-9.766,-251.465,-60.059,0
1594888421.763,-87.891,5.859,66.895,-55.176,0
1594888421.775,-75.195,8.301,127.441,-48.828,0
1594888421.779,-77.148,6.348,-11.230,-44.922,0
1594888421.783,-81.543,18.555,23.438,-47.852,0
1594888421.787,-80.078,19.043,42.969,-48.828,0
1594888421.791,-76.172,19.043,-202.148,-38.574,0
1594888421.795,-67.383,24.414,-206.055,-31.738,0
1594888421.799,-65.430,29.297,-300.293,-38.574,0
1594888421.802,-73.242,40.039,-531.738,-30.762,0
1594888421.806,-73.730,44.434,-277.344,-24.902,0
1594888421.810,-65.430,34.668,7.812,-31.250,0
1594888421.814,-74.219,36.133,42.480,-35.156,0
1594888421.818,-93.262,33.203,-183.105,-38.086,0
1594888421.812,-99.609,28.320,-113.770,-40.039,0
1594888421.816,-93.262,31.738,78.613,-38.086,0
1594888421.820,-86.914,31.738,3.906,-40.527,0
1594888421.824,-93.262,26.367,-177.734,-39.551,0
1594888421.828,-101.074,22.461,-373.535,-31.738,0
1594888421.832,-96.191,21.484,-253.418,-36.621,0
1594888421.836,-93.262,12.207,-167.480,-45.898,0
1594888421.839,-95.215,18.066,-217.285,-45.410,0
1594888421.843,-90.332,25.879,-193.848,-41.992,0
1594888421.847,-81.543,7.812,-419.434,-33.203,0
1594888421.851,-76.172,11.719,-259.277,-34.180,0
1594888421.855,-79.102,19.531,32.715,-40.039,0
1594888421.869,-80.566,14.648,33.203,-41.016,0
1594888421.873,-80.078,14.160,34.668,-38.574,0
1594888421.877,-73.730,14.160,22.461,-38.574,0
1594888421.881,-70.801,6.836,29.785,-50.781,0
1594888421.885,-73.730,1.465,-169.434,-56.152,0
1594888421.889,-76.172,-7.324,-265.137,-43.457,0
1594888421.893,-77.637,-8.301,-251.953,-38.574,0
1594888421.896,-81.543,-3.418,-331.543,-43.945,0
1594888421.900,-88.379,-1.953,-180.176,-42.480,0
1594888421.904,-91.309,-8.789,-161.133,-32.227,0
1594888421.908,-87.402,-9.766,-162.598,-28.320,0
1594888421.912,-75.684,-7.812,-131.836,-32.227,0
1594888421.906,-76.172,-1.953,-83.984,-35.156,0
1594888421.910,-88.867,-5.371,57.617,-37.598,0
1594888421.914,-88.867,-15.625,-74.219,-40.039,0
1594888421.918,-82.031,-15.137,-174.316,-38.086,0
1594888421.922,-84.473,-19.531,-263.184,-38.574,0
1594888421.926,-83.496,-18.066,-338.867,-40.527,0
1594888421.930,-81.543,-9.277,-222.656,-39.551,0
1594888421.933,-83.496,-9.277,-52.734,-41.504,0
1594888421.937,-86.426,-19.043,6.836,-39.551,0
1594888421.941,-93.262,-26.367,-413.574,-39.062,0
1594888421.945,-89.844,-10.742,-261.719,-43.457,0
1594888421.949,-80.566,-9.277,140.137,-41.016,0
1594888421.947,-83.984,-20.996,-4.883,-35.156,0
1594888421.951,-86.426,-26.367,-288.086,-34.180,0
1594888421.955,-87.402,-22.949,-286.133,-39.062,0
1594888421.959,-80.566,-19.043,20.508,-50.293,0
1594888421.963,-75.684,-21.973,16.113,-60.547,0
1594888421.967,-77.148,-18.555,-242.188,-63.477,0
1594888421.971,-82.520,-14.648,-348.145,-62.012,0
1594888421.974,-78.125,-11.230,-362.793,-66.895,0
1594888421.978,-73.242,-2.441,3.906,-82.031,0
1594888421.982,-81.055,-4.395,58.594,-85.449,0
1594888421.986,-85.938,-7.812,-95.215,-83.984,0
1594888421.990,-81.055,-7.324,-202.148,-82.520,0
1594888422.000,-73.242,-3.418,-123.047,-77.637,0
1594888422.004,-69.336,-3.906,20.508,-84.961,0
1594888422.008,-77.148,-8.789,-174.316,-85.938,0
1594888422.012,-82.520,-5.371,-323.242,-81.543,0
1594888422.016,-74.707,-12.207,-429.199,-78.613,0
1594888422.020,-66.895,-13.184,-451.172,-84.961,0
1594888422.024,-69.336,1.465,-145.996,-97.168,0
1594888422.027,-75.195,0.488,58.594,-95.703,0
1594888422.031,-65.918,-4.883,98.633,-81.543,0
1594888422.035,-61.523,-19.531,-161.621,-81.543,0
1594888422.039,-70.801,-15.137,-115.234,-88.379,0
1594888422.043,-78.125,-4.883,53.711,-87.402,0
1594888422.056,-77.637,-8.789,87.891,-79.590,0
1594888422.060,-83.008,-19.531,7.324,-79.102,0
1594888422.064,-78.125,-12.695,-147.461,-85.938,0
1594888422.068,-72.266,-6.348,-40.527,-83.008,0
1594888422.072,-74.219,-15.137,5.371,-73.730,0
1594888422.076,-64.941,-18.066,-141.602,-77.637,0
1594888422.080,-61.035,-17.090,-310.059,-82.031,0
1594888422.083,-73.242,-20.996,-522.949,-69.336,0
1594888422.087,-77.637,-8.301,-235.352,-70.312,0
1594888422.091,-74.707,-2.441,72.754,-83.496,0
1594888422.095,-69.824,-4.883,66.895,-86.914,0
1594888422.099,-74.707,-10.742,-54.199,-84.961,0
1594888422.094,-79.590,-11.719,-128.906,-80.566,0
1594888422.098,-75.195,-7.324,-25.391,-77.148,0
1594888422.102,-78.125,-3.418,29.785,-80.566,0
1594888422.106,-84.961,-11.230,-113.281,-80.566,0
1594888422.110,-87.891,-23.926,-429.199,-66.895,0
1594888422.114,-84.473,-15.625,-359.863,-61.035,0
1594888422.118,-77.148,-6.348,-95.703,-54.199,0
1594888422.121,-78.125,-14.160,-24.414,-52.734,0
1594888422.125,-84.473,-21.973,-163.574,-60.547,0
1594888422.129,-79.102,-24.902,-507.324,-47.852,0
1594888422.133,-74.707,-17.090,-261.719,-46.387,0
1594888422.137,-78.613,-13.672,91.797,-61.035,0
1594888422.134,-83.984,-14.160,37.598,-61.523,0
1594888422.138,-91.797,-17.578,-56.641,-54.199,0
1594888422.142,-77.637,-14.160,-127.930,-53.711,0
1594888422.146,-69.824,-8.789,53.223,-61.523,0
1594888422.150,-87.402,-22.461,-70.801,-68.359,0
1594888422.154,-96.191,-23.438,-253.418,-64.453,0
1594888422.158,-84.473,-17.090,-298.340,-62.988,0
1594888422.161,-64.453,-11.719,-331.543,-57.129,0
1594888422.165,-65.430,-8.301,-168.945,-63.477,0
1594888422.169,-71.777,-12.695,-120.117,-73.730,0
1594888422.173,-62.988,-16.602,-35.645,-61.035,0
1594888422.177,-52.734,-18.066,-206.055,-49.805,0
1594888422.189,-60.547,-12.207,-307.129,-54.199,0
1594888422.193,-69.824,-7.324,-51.758,-61.523,0
1594888422.197,-73.242,-10.742,-78.125,-56.152,0
1594888422.201,-69.336,-13.672,-234.375,-52.246,0
1594888422.205,-67.383,-19.531,-340.332,-55.664,0
1594888422.209,-68.359,-19.531,-408.691,-56.152,0
1594888422.213,-68.359,-11.719,-338.867,-54.199,0
1594888422.216,-70.312,-11.230,-3.906,-56.641,0
1594888422.220,-70.312,-19.043,195.312,-54.199,0
1594888422.224,-75.195,-29.297,-285.645,-50.293,0
1594888422.228,-81.055,-17.090,-217.773,-57.129,0
1594888422.232,-74.707,-11.719,107.910,-48.828,0
1594888422.244,-67.871,-13.672,121.094,-41.016,0
1594888422.248,-72.754,-19.043,25.879,-51.270,0
1594888422.252,-80.078,-21.973,-217.773,-46.875,0
1594888422.256,-81.055,-15.137,-136.719,-58.594,0
1594888422.260,-76.660,-17.090,24.902,-78.125,0
1594888422.264,-76.172,-23.438,-145.508,-65.430,0
1594888422.268,-80.566,-28.320,-307.617,-51.270,0
1594888422.271,-83.984,-35.645,-436.523,-50.781,0
1594888422.275,-77.148,-31.250,-108.398,-55.176,0
1594888422.279,-77.637,-32.715,132.812,-61.523,0
1594888422.283,-79.102,-34.668,22.461,-67.383,0
1594888422.287,-73.730,-39.551,-96.680,-62.988,0
1594888422.281,-66.406,-41.504,-103.027,-63.477,0
1594888422.285,-59.570,-35.156,72.266,-68.359,0
1594888422.289,-58.594,-35.156,-42.969,-67.871,0
1594888422.293,-63.965,-38.574,-273.926,-68.359,0
1594888422.297,-78.125,-39.062,-434.082,-62.988,0
1594888422.301,-70.312,-29.785,-326.172,-62.988,0
1594888422.305,-56.152,-26.367,-258.789,-56.641,0
1594888422.308,-67.383,-24.902,-220.703,-60.059,0
1594888422.312,-90.820,-30.762,31.738,-75.195,0
1594888422.316,-102.051,-49.316,-314.453,-71.289,0
1594888422.320,-97.168,-35.156,-304.199,-68.848,0
1594888422.324,-93.750,-20.020,30.273,-75.195,0
1594888422.337,-92.773,-24.902,-91.797,-81.543,0
1594888422.341,-87.402,-29.297,-169.922,-78.125,0
1594888422.345,-88.867,-23.438,-160.156,-72.266,0
1594888422.349,-84.961,-18.555,-187.012,-68.359,0
1594888422.353,-77.637,-20.996,-138.672,-63.965,0
1594888422.357,-72.266,-24.902,-205.566,-61.523,0
1594888422.361,-69.336,-23.926,-265.137,-65.430,0
1594888422.364,-69.824,-21.484,-324.219,-72.754,0
1594888422.368,-70.801,-18.066,-321.289,-78.125,0
1594888422.372,-67.383,-17.090,-109.863,-73.730,0
1594888422.376,-50.781,-16.602,87.402,-71.777,0
1594888422.380,-57.617,-20.996,-101.074,-72.754,0
1594888422.375,-70.312,-18.555,-282.227,-68.359,0
1594888422.379,-58.594,-9.277,-87.891,-58.594,0
1594888422.383,-52.734,-12.695,2.441,-55.664,0
1594888422.387,-57.617,-17.090,-192.383,-61.035,0
1594888422.391,-69.336,-20.996,-412.109,-52.734,0
1594888422.395,-74.219,-14.160,-359.863,-39.551,0
1594888422.399,-74.219,-14.648,-102.539,-42.480,0
1594888422.402,-77.637,-12.207,93.750,-44.434,0
1594888422.406,-83.984,-6.836,26.855,-45.410,0
1594888422.410,-88.379,-21.973,-393.066,-46.875,0
1594888422.414,-78.613,-12.207,-292.969,-48.340,0
1594888422.418,-77.148,-18.066,-163.574,-47.852,0
1594888422.416,-93.750,-20.508,-90.332,-43.945,0
1594888422.420,-92.773,-19.043,-38.086,-37.598,0
1594888422.424,-79.590,-28.809,-219.727,-33.203,0
1594888422.428,-67.383,-32.227,-149.414,-38.574,0
1594888422.432,-64.453,-41.016,-47.852,-50.293,0
1594888422.436,-76.172,-36.621,-126.465,-60.547,0
1594888422.440,-82.520,-36.133,-282.227,-59.082,0
1594888422.443,-90.820,-45.410,-427.734,-64.453,0
1594888422.447,-90.332,-44.922,-311.035,-75.195,0
1594888422.451,-87.891,-49.805,-247.070,-76.660,0
1594888422.455,-88.379,-50.293,-268.555,-71.777,0
1594888422.459,-78.125,-49.316,-272.461,-69.336,1
1594888422.470,-61.523,-48.828,-180.664,-72.266,0
1594888422.474,-64.941,-60.547,-228.516,-66.895,0
1594888422.478,-72.266,-62.500,-331.543,-56.641,0
1594888422.482,-74.707,-56.152,-253.418,-58.594,0
1594888422.486,-73.242,-91.309,-402.344,-54.688,0
1594888422.490,-70.801,-105.469,-528.809,-56.641,0
1594888422.494,-69.824,-88.379,-313.965,-58.594,0
1594888422.497,-63.965,-85.449,-26.367,-41.016,0
1594888422.501,-57.129,-85.449,27.344,-45.410,0
1594888422.505,-57.129,-90.332,-334.473,-67.383,0
1594888422.509,-67.383,-83.008,-281.250,-72.266,0
1594888422.513,-65.918,-76.660,-204.102,-70.801,0
1594888422.525,-52.734,-69.336,-194.336,-70.801,0
1594888422.529,-53.223,-61.523,2.441,-69.824,0
1594888422.533,-58.105,-58.594,-9.277,-67.871,0
1594888422.537,-62.500,-58.594,43.945,-66.406,0
1594888422.541,-81.543,-56.641,80.078,-69.824,0
1594888422.545,-79.102,-47.363,24.902,-65.430,0
1594888422.549,-79.102,-44.922,-160.156,-56.641,0
1594888422.552,-96.680,-48.340,-462.891,-56.641,0
1594888422.556,-94.727,-35.156,-153.320,-62.988,0
1594888422.560,-85.938,-28.809,158.203,-62.988,0
1594888422.564,-87.891,-27.832,137.207,-58.105,0
1594888422.568,-90.332,-31.250,-91.797,-56.152,0
1594888422.562,-89.355,-15.625,-129.883,-53.223,0
1594888422.566,-83.496,2.930,125.977,-45.898,0
1594888422.570,-80.566,1.953,-6.348,-49.316,0
1594888422.574,-85.938,2.441,-286.133,-58.105,0
1594888422.578,-87.891,-1.465,-395.996,-62.012,0
1594888422.582,-75.684,-1.465,-217.285,-66.895,0
1594888422.586,-62.988,6.836,86.914,-70.312,0
1594888422.589,-67.871,4.883,-26.855,-67.871,0
1594888422.593,-73.242,7.324,-213.867,-71.289,0
1594888422.597,-62.988,3.418,-413.086,-67.871,0
1594888422.601,-55.664,1.953,-203.613,-62.012,0
1594888422.605,-64.453,5.371,134.277,-61.523,0
1594888422.619,-66.895,-3.906,46.875,-56.641,0
1594888422.623,-57.129,-8.789,-23.438,-54.688,0
1594888422.627,-58.594,-3.418,-47.852,-55.664,0
1594888422.631,-62.500,-2.441,48.340,-54.199,0
1594888422.635,-66.406,-15.137,43.457,-62.012,0
1594888422.639,-72.754,-22.949,-105.957,-55.176,0
1594888422.643,-69.824,-30.762,-247.559,-44.922,0
1594888422.646,-68.359,-32.227,-333.984,-52.734,0
1594888422.650,-70.801,-25.391,-73.730,-56.641,0
1594888422.654,-84.473,-36.133,-31.738,-59.570,0
1594888422.658,-83.496,-41.016,-152.344,-54.688,0
1594888422.662,-70.312,-44.922,-115.723,-50.781,0
1594888422.656,-83.984,-47.852,-46.387,-50.781,0
1594888422.660,-106.934,-50.293,-7.812,-47.852,0
1594888422.664,-101.562,-52.734,-27.832,-43.945,0
1594888422.668,-86.426,-48.828,-119.629,-42.480,0
1594888422.672,-86.426,-50.293,-357.422,-48.828,0
1594888422.676,-91.797,-50.293,-406.738,-57.129,0
1594888422.680,-84.961,-44.922,-168.457,-57.617,0
1594888422.683,-72.754,-43.945,107.910,-51.270,0
1594888422.687,-71.777,-50.781,89.355,-49.805,0
1594888422.691,-73.730,-59.570,-338.867,-52.246,0
1594888422.695,-72.754,-47.852,-160.645,-47.852,0
1594888422.699,-58.594,-41.016,117.676,-44.434,0
1594888422.697,-47.852,-51.270,26.855,-57.129,0
1594888422.701,-57.617,-53.711,-126.953,-61.523,0
1594888422.705,-70.312,-57.129,-295.410,-52.734,0
1594888422.709,-67.383,-56.641,-68.359,-53.711,0
1594888422.713,-63.965,-56.641,13.184,-60.059,0
1594888422.717,-66.895,-60.059,-178.711,-73.730,0
1594888422.721,-68.359,-65.430,-299.316,-80.078,0
1594888422.724,-61.035,-63.965,-338.867,-78.125,0
1594888422.728,-52.246,-49.316,61.035,-80.566,0
1594888422.732,-55.176,-55.664,122.070,-79.102,0
1594888422.736,-65.918,-64.941,-93.262,-77.637,0
1594888422.740,-68.848,-62.988,-228.516,-71.777,0
1594888422.750,-66.406,-54.688,-109.863,-69.336,0
1594888422.754,-68.848,-53.223,47.852,-69.824,0
1594888422.758,-90.332,-49.316,-115.234,-70.801,0
1594888422.762,-98.633,-45.410,-294.922,-68.848,0
1594888422.766,-85.938,-49.316,-398.926,-69.824,0
1594888422.770,-79.590,-47.852,-396.973,-69.824,0
1594888422.774,-86.914,-37.598,-269.043,-71.289,0
1594888422.777,-89.844,-31.738,-136.719,-69.824,0
1594888422.781,-74.219,-37.109,-21.973,-68.848,0
1594888422.785,-68.359,-42.969,-345.215,-69.336,0
1594888422.789,-80.078,-37.598,-182.129,-66.895,0
1594888422.793,-86.914,-42.480,76.172,-60.059,0
1594888422.806,-80.078,-38.086,32.715,-63.477,0
1594888422.810,-74.707,-39.551,-54.199,-79.102,0
1594888422.814,-82.520,-43.945,-183.594,-76.172,0
1594888422.818,-86.426,-37.598,-81.055,-67.383,0
1594888422.822,-76.660,-35.156,-80.078,-70.312,0
1594888422.826,-68.848,-37.598,-206.543,-74.219,0
1594888422.830,-66.406,-43.457,-270.020,-78.125,0
1594888422.833,-73.242,-39.551,-414.551,-78.125,0
1594888422.837,-80.078,-27.344,-255.371,-80.078,0
1594888422.841,-70.801,-20.508,26.855,-70.312,0
1594888422.845,-71.777,-20.996,29.785,-66.406,0
1594888422.849,-80.566,-27.344,-259.766,-73.730,0
1594888422.844,-78.613,-20.508,-321.777,-68.848,0
1594888422.848,-67.871,-8.789,-87.402,-63.965,0
1594888422.852,-57.129,-15.137,61.035,-65.430,0
1594888422.856,-62.988,-17.578,-108.887,-61.035,0
1594888422.860,-76.172,-19.531,-326.172,-60.059,0
1594888422.864,-77.637,-10.254,-244.141,-63.965,0
1594888422.868,-73.730,-9.766,-99.121,-64.941,0
1594888422.871,-73.242,-13.184,27.344,-63.477,0
1594888422.875,-81.055,-8.789,-4.883,-64.941,0
1594888422.879,-84.473,-18.066,-407.227,-59.082,0
1594888422.883,-78.613,-21.484,-188.477,-61.035,0
1594888422.887,-74.219,-87.891,123.535,-65.430,0
1594888422.884,-79.102,-146.973,42.480,-72.266,0
1594888422.888,-87.402,-150.391,-64.941,-70.312,0
1594888422.892,-80.566,-140.625,-115.723,-63.477,0
1594888422.896,-75.684,-126.465,15.137,-71.777,0
1594888422.900,-81.055,-111.328,-142.578,-73.242,0
1594888422.904,-83.008,-94.238,-284.180,-68.848,0
1594888422.908,-77.148,-94.727,-373.047,-66.406,0
1594888422.911,-74.219,-90.332,-398.926,-67.383,0
1594888422.915,-83.984,-65.430,-140.625,-69.336,0
1594888422.919,-100.586,-60.059,-144.043,-69.336,0
1594888422.923,-100.586,-49.805,-62.500,-69.336,0
1594888422.927,-83.984,-44.922,-33.203,-68.359,0
1594888422.939,-83.984,-40.039,-301.758,-69.336,0
1594888422.943,-94.727,-25.879,-329.590,-67.871,0
1594888422.947,-100.098,-20.020,-297.363,-58.594,0
1594888422.951,-94.238,-14.160,-311.035,-61.035,0
1594888422.955,-94.238,-16.113,-444.824,-65.430,0
1594888422.959,-95.215,-10.742,-538.086,-58.594,0
1594888422.963,-99.121,10.742,-384.277,-64.453,0
1594888422.966,-101.562,16.113,-145.996,-66.406,0
1594888422.970,-100.098,-0.488,-16.602,-62.988,0
1594888422.974,-102.539,-13.672,-429.688,-57.129,0
1594888422.978,-100.586,7.812,-385.742,-59.570,0
1594888422.982,-89.355,20.508,-68.359,-63.477,0
1594888422.994,-85.938,16.602,71.289,-65.918,0
1594888422.998,-92.773,7.812,-37.109,-59.570,0
1594888423.002,-96.191,4.883,-265.137,-55.664,0
1594888423.006,-92.773,14.648,-288.086,-59.570,0
1594888423.010,-88.379,13.672,-92.773,-55.664,0
1594888423.014,-95.215,9.766,-56.152,-69.336,0
1594888423.018,-95.215,6.836,-352.539,-81.543,0
1594888423.021,-91.797,3.906,-565.430,-75.684,0
1594888423.025,-84.473,16.602,-234.375,-78.613,0
1594888423.029,-78.125,21.484,70.801,-81.055,0
1594888423.033,-86.914,16.602,-26.855,-84.961,0
1594888423.037,-92.285,13.184,-215.332,-80.078,0
1594888423.031,-79.590,15.137,-172.363,-77.637,0
1594888423.035,-65.430,18.066,37.598,-88.379,0
1594888423.039,-76.172,11.719,-53.223,-78.613,0
1594888423.043,-84.961,10.254,-265.137,-71.289,0
1594888423.047,-77.637,6.836,-339.355,-73.730,0
1594888423.051,-72.266,5.371,-256.348,-80.566,0
1594888423.055,-72.266,10.254,-225.098,-82.520,0
1594888423.058,-83.008,3.906,-234.863,-78.125,0
1594888423.062,-92.773,1.953,-131.348,-82.031,0
1594888423.066,-89.844,-6.348,-360.352,-86.914,0
1594888423.070,-87.891,-11.719,-268.066,-80.566,0
1594888423.074,-83.496,-25.879,45.410,-79.590,0
1594888423.087,-86.426,-51.758,17.578,-78.613,0
1594888423.091,-92.773,-68.359,10.742,-78.125,0
1594888423.095,-89.355,-59.570,-46.387,-70.801,0
1594888423.099,-96.680,-31.738,-92.285,-67.871,0
1594888423.103,-103.027,-16.113,-115.234,-72.754,0
1594888423.107,-83.496,0.488,-194.336,-72.266,0
1594888423.111,-77.637,13.184,-157.227,-76.172,0
1594888423.114,-87.891,18.555,-295.410,-78.125,0
1594888423.118,-90.332,34.180,-320.801,-81.543,0
1594888423.122,-83.984,41.504,-183.105,-82.031,0
1594888423.126,-81.055,44.922,14.648,-83.984,0
1594888423.130,-81.055,40.039,-73.730,-82.031,0
1594888423.125,-85.938,41.504,-284.180,-76.660,0
1594888423.129,-86.426,54.199,-207.520,-85.449,0
1594888423.133,-77.148,68.848,20.996,-91.797,0
1594888423.137,-72.266,74.219,-24.414,-85.938,0
1594888423.141,-79.102,77.637,-357.422,-71.777,0
1594888423.145,-89.844,80.078,-357.910,-73.242,0
1594888423.149,-94.238,80.078,-81.543,-80.566,0
1594888423.152,-99.609,74.707,155.762,-76.172,0
1594888423.156,-105.469,61.523,20.508,-70.312,0
1594888423.160,-109.863,54.199,-354.004,-71.289,0
1594888423.164,-100.586,61.523,-91.797,-71.777,0
1594888423.168,-81.543,58.105,126.465,-62.988,0
1594888423.166,-86.914,49.316,-106.445,-70.312,0
1594888423.170,-93.262,52.246,-185.547,-77.637,0
1594888423.174,-84.961,44.434,-456.543,-71.777,0
1594888423.178,-80.078,53.223,-172.363,-77.637,0
1594888423.182,-77.148,57.617,52.246,-78.613,0
1594888423.186,-83.496,50.293,-207.520,-80.078,0
1594888423.190,-90.332,48.828,-282.715,-82.031,0
1594888423.193,-91.797,49.805,-222.168,-72.754,0
1594888423.197,-92.773,50.781,95.703,-72.754,0
1594888423.201,-94.727,44.922,97.656,-80.078,0
1594888423.205,-93.262,41.504,57.129,-82.031,0
1594888423.209,-80.566,38.574,-2.930,-79.590,0
1594888423.219,-70.801,43.457,62.012,-79.102,0
1594888423.223,-75.684,33.203,102.539,-84.961,0
1594888423.227,-79.102,21.973,-77.637,-85.449,0
1594888423.231,-69.824,27.832,-10.254,-67.383,0
1594888423.235,-67.871,20.020,-83.496,-60.059,0
1594888423.239,-78.613,18.066,-337.402,-67.383,0
1594888423.243,-83.984,31.250,-96.680,-67.871,0
1594888423.246,-78.613,20.508,104.980,-73.730,0
1594888423.250,-65.918,8.301,114.258,-78.125,0
1594888423.254,-73.242,-4.883,-180.664,-80.078,0
1594888423.258,-82.520,-4.395,-132.324,-86.426,0
1594888423.262,-75.684,5.859,20.020,-79.102,0
1594888423.275,-66.895,12.695,113.770,-72.754,0
1594888423.279,-58.594,-0.977,167.480,-72.266,0
1594888423.283,-60.547,-4.395,21.484,-73.242,0
1594888423.287,-68.359,-0.488,-4.395,-66.895,0
1594888423.291,-62.988,-4.883,-3.418,-56.641,0
1594888423.295,-55.176,1.465,20.508,-57.617,0
1594888423.299,-64.453,-2.441,-135.254,-68.359,0
1594888423.302,-78.125,-8.301,-479.980,-68.848,0
1594888423.306,-68.359,13.184,-250.000,-63.477,0
1594888423.310,-60.547,20.508,84.961,-62.012,0
1594888423.314,-67.383,12.695,17.578,-63.477,0
1594888423.318,-83.008,10.742,-211.914,-68.848,0
1594888423.312,-85.449,11.719,-133.301,-76.172,0
1594888423.316,-75.684,15.625,70.801,-76.660,0
1594888423.320,-75.684,14.160,-66.895,-73.242,0
1594888423.324,-83.496,6.348,-235.352,-74.707,0
1594888423.328,-86.914,14.648,-346.680,-74.219,0
1594888423.332,-76.172,30.273,-249.023,-65.918,0
1594888423.336,-73.242,33.203,-131.836,-70.801,0
1594888423.339,-83.984,29.297,-149.414,-81.055,2
1594888423.343,-85.449,28.320,-204.590,-73.242,0
1594888423.347,-75.684,21.484,-413.086,-58.105,0
1594888423.351,-78.613,29.785,-175.781,-56.152,0
1594888423.355,-78.613,30.273,88.379,-66.406,0
1594888423.369,-72.266,25.879,36.133,-72.754,0
1594888423.373,-72.754,10.742,18.066,-68.848,0
1594888423.377,-70.312,2.930,-134.766,-66.895,0
1594888423.381,-69.824,4.395,2.930,-70.312,0
1594888423.385,-78.613,3.418,-35.156,-69.824,0
1594888423.389,-91.797,2.441,-266.602,-68.359,0
1594888423.393,-82.520,4.883,-323.242,-68.359,0
1594888423.396,-72.754,4.883,-380.371,-75.684,0
1594888423.400,-77.148,7.812,-26.367,-83.496,0
1594888423.404,-81.543,3.418,62.988,-78.613,0
1594888423.408,-81.543,0.488,35.645,-73.242,0
1594888423.412,-72.266,-1.465,-35.645,-62.988,0
1594888423.407,-71.777,1.465,-74.707,-68.848,0
1594888423.411,-76.172,2.930,81.543,-65.430,0
1594888423.415,-68.848,-3.906,23.438,-57.129,0
1594888423.419,-65.430,-3.418,-6.836,-64.453,0
1594888423.423,-69.336,-12.695,-163.086,-73.730,0
1594888423.427,-76.172,-15.137,-402.832,-76.172,0
1594888423.431,-70.801,-2.441,-137.695,-75.684,0
1594888423.434,-64.941,-4.883,161.133,-85.449,0
1594888423.438,-64.941,-13.672,-19.043,-85.449,0
1594888423.442,-64.453,-20.996,-431.641,-67.871,0
1594888423.446,-63.965,-8.301,-226.562,-77.637,0
1594888423.450,-47.852,1.465,113.281,-87.402,0
1594888423.464,-45.410,-6.348,100.586,-85.449,0
1594888423.468,-57.617,-14.160,-2.930,-85.938,0
1594888423.472,-61.523,-14.648,-221.191,-76.660,0
1594888423.476,-58.594,-5.859,33.691,-70.801,0
1594888423.480,-47.852,-8.789,164.062,-69.824,0
1594888423.484,-50.293,-15.625,-74.707,-75.684,0
1594888423.488,-65.918,-16.602,-288.574,-68.359,0
1594888423.491,-66.895,-13.672,-421.387,-59.570,0
1594888423.495,-64.941,0.000,-244.141,-69.336,0
1594888423.499,-75.684,3.418,-62.500,-69.824,0
1594888423.503,-79.590,4.395,-9.277,-66.406,0
1594888423.507,-75.684,10.254,-167.480,-70.312,0
1594888423.500,-67.383,10.742,-51.758,-77.148,0
1594888423.504,-68.848,-2.441,-32.227,-87.402,0
1594888423.508,-82.520,-11.230,-76.660,-90.332,0
1594888423.512,-83.496,-6.348,-32.227,-90.820,0
1594888423.516,-73.730,-10.742,-282.715,-89.355,0
1594888423.520,-64.453,-1.953,-204.102,-87.402,0
1594888423.524,-56.152,-0.977,-156.738,-88.379,0
1594888423.527,-62.012,-9.277,-71.289,-87.891,0
1594888423.531,-61.035,-3.418,77.637,-81.055,0
1594888423.535,-58.594,-11.230,-370.605,-64.453,0
1594888423.539,-71.289,2.930,-278.320,-62.988,0
1594888423.543,-70.312,11.230,33.203,-61.035,0
1594888423.556,-55.176,-9.277,75.195,-55.176,0
1594888423.560,-51.758,-21.973,-1.953,-54.199,0
1594888423.564,-57.129,-16.602,-140.625,-55.664,0
1594888423.568,-62.500,-10.254,1.953,-61.523,0
1594888423.572,-67.383,-14.160,53.223,-63.965,0
1594888423.576,-56.152,-20.996,17.090,-57.129,0
1594888423.580,-50.781,-26.367,-156.738,-47.852,0
1594888423.583,-65.918,-20.508,-423.828,-51.270,0
1594888423.587,-64.941,-7.324,-252.930,-55.664,0
1594888423.591,-52.734,-3.418,1.953,-50.781,0
1594888423.595,-53.223,-4.883,122.559,-55.664,0
1594888423.599,-60.547,-10.742,-89.844,-51.758,0
1594888423.594,-63.965,-10.742,-204.102,-54.199,0
1594888423.598,-62.500,-7.324,84.961,-71.777,0
1594888423.602,-65.430,-3.418,80.078,-62.988,0
1594888423.606,-75.684,-5.371,-134.766,-53.223,0
1594888423.610,-83.496,-8.301,-299.316,-57.129,0
1594888423.614,-83.984,0.488,-162.109,-52.246,0
1594888423.618,-72.266,-4.883,-6.348,-41.016,0
1594888423.621,-69.824,-5.859,59.082,-35.645,0
1594888423.625,-76.660,-8.789,-45.410,-41.504,0
1594888423.629,-82.031,-18.066,-374.512,-48.340,0
1594888423.633,-78.613,-5.859,-273.438,-50.781,0
1594888423.637,-67.871,4.883,-46.875,-48.828,0
1594888423.634,-70.801,3.906,75.684,-49.316,0
1594888423.638,-80.566,-10.742,-93.262,-66.895,0
1594888423.642,-73.730,-11.719,-289.551,-70.801,0
1594888423.646,-71.289,5.859,53.711,-64.941,0
1594888423.650,-79.590,1.465,62.988,-65.430,0
1594888423.654,-78.613,1.465,-250.000,-65.430,0
1594888423.658,-64.941,-1.953,-308.594,-67.871,0
1594888423.661,-59.082,-25.391,-353.027,-62.988,0
1594888423.665,-72.266,-20.996,-137.695,-70.312,0
1594888423.669,-77.637,-9.766,13.672,-72.754,0
1594888423.673,-65.430,-4.883,-6.836,-72.754,0
1594888423.677,-54.199,-2.930,-102.539,-81.543,0
1594888423.689,-62.012,-4.395,-6.348,-74.219,0
1594888423.693,-71.777,-3.418,48.340,-67.383,0
1594888423.697,-76.172,-10.742,-173.340,-65.918,0
1594888423.701,-75.684,-16.602,-199.707,-62.988,0
1594888423.705,-82.520,-22.949,-294.922,-67.383,0
1594888423.709,-94.727,-20.508,-552.734,-65.430,0
1594888423.713,-97.656,-3.906,-290.039,-63.965,0
1594888423.716,-92.773,-3.906,69.336,-70.801,0
1594888423.720,-86.426,-11.719,81.055,-69.824,0
1594888423.724,-84.961,-22.461,-312.988,-63.965,0
1594888423.728,-80.566,-14.648,-304.199,-64.941,0
1594888423.732,-73.730,-4.883,-24.902,-64.453,0
1594888423.744,-74.707,-15.625,90.332,-63.965,0
1594888423.748,-78.613,-24.414,-30.762,-61.523,0
1594888423.752,-78.125,-17.578,-200.684,-61.523,0
1594888423.756,-73.242,-11.719,-60.059,-61.035,0
1594888423.760,-58.594,-19.531,-9.277,-60.547,0
1594888423.764,-50.781,-24.902,-96.191,-55.664,0
1594888423.768,-54.688,-27.344,-237.793,-53.223,0
1594888423.771,-59.082,-31.250,-458.496,-53.711,0
1594888423.775,-62.988,-23.926,-226.074,-75.684,0
1594888423.779,-63.477,-10.254,9.766,-90.332,0
1594888423.783,-68.848,-8.301,-14.160,-85.938,0
1594888423.787,-74.707,-15.137,-75.684,-86.426,0
1594888423.781,-76.172,-13.672,-68.848,-86.426,0
1594888423.785,-70.312,-14.648,61.523,-80.566,0
1594888423.789,-78.613,-21.484,14.160,-76.660,0
1594888423.793,-96.680,-26.367,-205.566,-77.148,0
1594888423.797,-84.473,-30.762,-377.930,-68.848,0
1594888423.801,-75.195,-27.832,-290.039,-59.082,0
1594888423.805,-80.566,-63.965,-242.676,-52.734,0
1594888423.808,-82.031,-100.586,-235.352,-53.223,0
1594888423.812,-89.355,-101.074,27.344,-62.500,0
1594888423.816,-85.449,-107.422,-192.383,-61.035,0
1594888423.820,-69.824,-101.562,-260.254,-62.500,0
1594888423.824,-79.102,-92.285,3.418,-73.242,0
1594888423.837,-90.332,-97.168,66.895,-74.707,0
1594888423.841,-79.102,-102.539,-2.441,-73.242,0
1594888423.845,-75.195,-92.285,-98.145,-77.148,0
1594888423.849,-77.148,-80.078,8.301,-83.008,0
1594888423.853,-77.148,-82.031,-107.910,-83.984,0
1594888423.857,-62.988,-71.777,-193.359,-85.449,0
1594888423.861,-49.805,-63.965,-241.699,-90.332,0
1594888423.864,-63.965,-75.195,-438.965,-92.773,0
1594888423.868,-74.219,-76.660,-102.051,-87.891,0
1594888423.872,-63.477,-68.359,51.270,-88.379,0
1594888423.876,-57.617,-63.477,-155.273,-82.031,0
1594888423.880,-68.848,-67.383,-269.531,-72.266,0
1594888423.875,-82.520,-62.988,-229.492,-75.195,0
1594888423.879,-90.332,-59.082,-3.906,-74.219,0
1594888423.883,-83.984,-60.547,-85.938,-73.242,0
1594888423.887,-75.684,-57.617,-220.703,-73.242,0
1594888423.891,-77.637,-57.617,-303.711,-68.359,0
1594888423.895,-83.008,-48.828,-367.188,-64.941,0
1594888423.899,-82.031,-39.551,-190.918,-69.824,0
1594888423.902,-75.684,-32.227,69.824,-72.754,0
1594888423.906,-74.219,-35.645,-2.441,-73.242,0
1594888423.910,-78.125,-44.434,-434.570,-68.359,0
1594888423.914,-79.102,-39.551,-206.543,-64.453,0
1594888423.918,-86.426,-31.738,133.789,-68.848,0
1594888423.916,-90.332,-30.273,7.324,-78.613,0
1594888423.920,-86.426,-36.133,-205.078,-83.984,0
1594888423.924,-84.473,-36.621,-299.805,-85.449,0
1594888423.928,-78.125,-10.254,75.195,-87.891,0
1594888423.932,-71.777,-0.488,139.160,-85.449,0
1594888423.936,-75.684,-3.418,-143.555,-85.938,0
1594888423.940,-79.102,0.977,-285.645,-86.914,0
1594888423.943,-67.871,8.789,-323.242,-82.031,0
1594888423.947,-57.617,19.043,24.902,-92.773,0
1594888423.951,-63.477,20.020,126.465,-93.750,0
1594888423.955,-70.801,19.043,-161.621,-90.332,0
1594888423.959,-67.383,24.902,-193.848,-86.426,0
1594888423.969,-58.594,25.879,44.434,-80.078,0
1594888423.973,-61.035,23.926,85.449,-82.031,0
1594888423.977,-65.430,32.227,-65.430,-78.125,0
1594888423.981,-69.336,31.738,-196.777,-73.730,0
1594888423.985,-65.918,26.367,-330.078,-69.824,0
1594888423.989,-69.824,25.391,-437.500,-81.055,0
1594888423.993,-69.336,37.109,-245.117,-82.520,0
1594888423.996,-67.871,38.574,-26.367,-81.543,0
1594888424.000,-73.730,32.227,28.809,-94.727,0
1594888424.004,-77.637,31.250,-205.566,-90.820,0
1594888424.008,-87.891,20.508,-81.543,-82.520,0
1594888424.012,-89.355,0.000,29.785,-83.496,0
1594888424.025,-82.520,0.000,56.641,-82.031,0
1594888424.029,-82.520,16.602,57.617,-86.914,0
1594888424.033,-83.984,29.297,-108.887,-91.309,0
1594888424.037,-83.984,31.250,0.000,-89.355,0
1594888424.041,-68.359,30.762,-24.902,-79.590,0
1594888424.045,-60.547,36.621,-198.730,-82.520,0
1594888424.049,-70.312,32.227,-287.598,-94.238,0
1594888424.052,-75.684,27.832,-481.445,-92.285,0
1594888424.056,-64.941,38.574,-172.852,-96.191,0
1594888424.060,-58.594,30.762,154.785,-98.633,0
1594888424.064,-66.895,31.250,32.715,-99.609,0
1594888424.068,-71.777,35.645,-43.945,-96.191,0
1594888424.062,-67.871,35.645,20.996,-91.797,0
1594888424.066,-64.453,41.016,95.703,-90.332,0
1594888424.070,-55.664,45.410,6.348,-86.426,0
1594888424.074,-62.500,38.086,-233.398,-83.984,0
1594888424.078,-67.871,30.762,-394.531,-80.078,0
1594888424.082,-60.059,35.645,-260.254,-70.312,0
1594888424.086,-65.918,30.273,-73.730,-72.266,0
1594888424.089,-65.918,20.508,-78.125,-68.848,0
1594888424.093,-60.547,25.879,-183.594,-57.617,0
1594888424.097,-60.059,16.602,-408.691,-58.594,0
1594888424.101,-55.176,16.113,-239.746,-61.523,0
1594888424.105,-62.012,20.508,-18.066,-69.824,0
1594888424.103,-81.055,10.254,-125.977,-73.730,0
1594888424.107,-83.984,5.371,-232.422,-70.312,0
1594888424.111,-75.195,4.883,-177.734,-70.801,0
1594888424.115,-72.754,6.348,37.598,-71.777,0
1594888424.119,-77.148,0.488,-78.125,-79.590,0
1594888424.123,-73.242,-2.930,-193.848,-78.125,0
1594888424.127,-62.012,-3.418,-99.609,-76.660,0
1594888424.130,-57.617,-5.859,-261.719,-84.961,0
1594888424.134,-70.312,-1.465,-72.266,-93.750,0
1594888424.138,-78.125,-4.883,87.402,-94.727,0
1594888424.142,-67.871,-9.277,101.074,-90.820,0
1594888424.146,-69.824,-16.602,44.922,-90.820,0
1594888424.157,-85.938,-25.879,-209.473,-94.727,0
1594888424.161,-83.496,-16.113,-181.152,-99.609,0
1594888424.165,-79.102,-9.277,20.508,-104.004,0
1594888424.169,-80.078,-17.578,35.645,-103.516,0
1594888424.173,-77.148,-23.438,-262.695,-96.191,0
1594888424.177,-79.102,-21.484,-509.766,-84.961,0
1594888424.181,-74.707,-6.348,-232.422,-83.496,0
1594888424.184,-60.059,-8.301,93.262,-84.473,0
1594888424.188,-62.012,-17.090,37.598,-86.426,0
1594888424.192,-69.824,-21.973,-367.676,-81.055,0
1594888424.196,-69.824,-16.113,-236.328,-67.383,0
1594888424.200,-67.871,-19.043,13.672,-65.918,0
1594888424.212,-69.824,-30.762,-42.480,-76.172,0
1594888424.216,-84.473,-41.992,-225.098,-80.078,2
1594888424.220,-95.215,-47.363,-305.176,-82.031,0
1594888424.224,-90.820,-50.781,-218.750,-84.961,0
1594888424.228,-81.543,-52.246,6.836,-86.914,0
1594888424.232,-83.008,-43.945,-57.617,-85.938,0
1594888424.236,-88.379,-38.086,-308.105,-83.496,0
1594888424.239,-83.496,-35.645,-486.328,-80.566,0
1594888424.243,-76.660,-28.809,-169.922,-80.566,0
1594888424.247,-81.543,-32.227,62.012,-78.125,0
1594888424.251,-83.984,-36.621,-66.895,-75.684,0
1594888424.255,-78.125,-37.598,-192.871,-71.777,0
1594888424.250,-69.824,-34.668,-129.883,-59.570,0
1594888424.254,-70.801,-34.180,113.770,-51.758,0
1594888424.258,-80.078,-39.551,-26.367,-55.664,0
1594888424.262,-82.031,-39.551,-282.227,-62.012,0
1594888424.266,-71.777,-38.574,-294.434,-63.477,0
1594888424.270,-67.383,-29.785,-239.746,-62.012,0
1594888424.274,-82.520,-27.344,-291.504,-66.895,0
1594888424.277,-81.543,-23.926,-227.051,-63.477,0
1594888424.281,-73.242,-18.066,39.062,-69.336,0
1594888424.285,-76.172,-28.809,-237.793,-80.078,0
1594888424.289,-77.148,-24.414,-240.723,-78.613,0
1594888424.293,-81.543,-19.531,75.684,-79.590,0
1594888424.306,-79.102,-25.391,68.359,-68.359,0
1594888424.310,-71.777,-20.508,108.887,-62.500,0
1594888424.314,-65.430,-19.043,33.691,-64.453,0
1594888424.318,-64.453,-18.066,54.199,-58.594,0
1594888424.322,-62.988,-15.625,92.773,-55.176,0
1594888424.326,-59.082,-20.996,-2.441,-55.176,0
1594888424.330,-66.895,-33.691,-96.680,-62.500,0
1594888424.333,-72.266,-38.086,-337.402,-58.105,0
1594888424.337,-80.078,-30.762,-315.430,-53.711,0
1594888424.341,-81.055,-24.414,-157.227,-60.059,0
1594888424.345,-73.242,-26.367,-1.953,-60.059,0
1594888424.349,-81.055,-41.016,-143.066,-56.641,0
1594888424.344,-85.938,-32.227,-263.672,-51.270,0
1594888424.348,-74.707,-14.648,47.852,-53.711,0
1594888424.352,-69.824,-12.695,135.254,-62.988,0
1594888424.356,-73.242,-18.555,-73.730,-62.012,0
1594888424.360,-78.125,-42.969,-310.547,-64.453,0
1594888424.364,-83.008,-39.551,-270.508,-62.500,0
1594888424.368,-75.195,-22.949,-81.543,-59.082,0
1594888424.371,-73.242,-15.137,38.574,-62.988,0
1594888424.375,-80.566,-8.789,2.441,-57.617,0
1594888424.379,-77.148,-29.297,-362.793,-48.340,0
1594888424.383,-71.289,-35.645,-258.789,-56.641,0
1594888424.387,-71.289,-30.762,-123.535,-62.500,0
1594888424.384,-73.730,-26.367,-98.633,-60.547,0
1594888424.388,-79.102,-33.203,-42.969,-55.664,0
1594888424.392,-76.172,-34.180,-227.539,-50.781,0
1594888424.396,-67.871,-29.785,-17.578,-61.035,0
1594888424.400,-74.707,-38.574,4.883,-65.918,0
1594888424.404,-81.055,-42.480,-241.211,-63.965,0
1594888424.408,-75.195,-40.039,-318.848,-59.570,0
1594888424.411,-74.707,-37.109,-390.625,-45.898,0
1594888424.415,-85.449,-27.832,-172.363,-50.293,0
1594888424.419,-88.867,-26.855,-38.086,-62.500,0
1594888424.423,-87.891,-30.273,-195.801,-59.082,0
1594888424.427,-75.684,-34.180,-242.676,-55.664,0
1594888424.439,-63.477,-38.574,-251.465,-53.711,0
1594888424.443,-71.289,-38.574,-272.461,-52.246,0
1594888424.447,-76.172,-31.738,-326.172,-41.016,0
1594888424.451,-79.102,-29.297,-272.949,-33.691,0
1594888424.455,-81.543,-30.762,-347.656,-40.527,0
1594888424.459,-85.938,-26.367,-527.832,-51.758,0
1594888424.463,-90.820,-20.508,-318.848,-62.988,0
1594888424.466,-80.566,-25.391,32.227,-60.547,0
1594888424.470,-71.289,-21.973,16.113,-59.570,0
1594888424.474,-79.102,-22.949,-347.656,-58.594,0
1594888424.478,-90.332,-19.531,-255.859,-55.664,0
1594888424.482,-77.148,-20.996,-159.180,-57.617,0
1594888424.494,-63.965,-27.832,-105.469,-59.570,0
1594888424.498,-70.312,-34.668,-143.555,-61.523,0
1594888424.502,-81.543,-33.691,-324.707,-59.570,0
1594888424.506,-81.543,-22.949,-152.832,-58.594,0
1594888424.510,-72.266,-22.949,26.367,-62.500,0
1594888424.514,-87.402,-23.926,-89.844,-65.430,0
1594888424.518,-98.633,-18.066,-272.949,-66.895,0
1594888424.521,-98.633,-25.879,-434.082,-55.176,0
1594888424.525,-96.680,-22.461,-215.332,-57.129,0
1594888424.529,-89.844,-16.602,80.566,-65.918,0
1594888424.533,-91.797,-23.438,-13.184,-60.547,0
1594888424.537,-103.027,-33.203,-257.324,-69.824,0
1594888424.531,-102.539,-29.297,-134.766,-72.754,0
1594888424.535,-99.609,-28.320,114.746,-71.777,0
1594888424.539,-106.934,-35.156,-30.273,-72.266,0
1594888424.543,-108.887,-34.668,-256.836,-64.453,0
1594888424.547,-105.957,-37.109,-331.543,-60.059,0
1594888424.551,-106.445,-35.645,-281.250,-69.336,0
1594888424.555,-104.004,-28.809,-191.895,-74.707,0
1594888424.558,-96.680,-26.367,-217.773,-67.383,0
1594888424.562,-82.031,-27.832,-220.215,-61.523,0
1594888424.566,-69.824,-38.086,-295.410,-53.223,0
1594888424.570,-73.730,-30.762,-247.559,-53.223,0
1594888424.574,-83.984,-18.066,-51.270,-52.734,0
1594888424.587,-92.285,-22.461,-47.852,-41.016,0
1594888424.591,-94.238,-18.066,-2.930,-36.621,0
1594888424.595,-99.609,-19.531,-61.523,-40.039,0
1594888424.599,-104.492,-25.879,9.277,-41.016,0
1594888424.603,-100.586,-32.715,-79.590,-38.086,0
1594888424.607,-95.703,-31.738,-223.145,-42.480,0
1594888424.611,-92.285,-30.273,-260.742,-46.875,0
1594888424.614,-101.074,-38.574,-434.570,-49.805,0
1594888424.618,-109.863,-25.879,-99.609,-52.246,0
1594888424.622,-106.934,-18.555,111.816,-44.922,0
1594888424.626,-97.656,-27.344,-23.438,-44.434,0
1594888424.630,-93.262,-26.367,-212.891,-48.340,0
1594888424.625,-87.891,-15.137,-261.230,-46.875,0
1594888424.629,-93.262,-16.113,-165.527,-46.875,0
1594888424.633,-103.027,-30.762,-198.730,-55.664,0
1594888424.637,-93.262,-34.180,-212.891,-58.594,0
1594888424.641,-94.238,-33.691,-309.082,-57.129,0
1594888424.645,-106.445,-33.691,-357.910,-60.547,0
1594888424.649,-99.121,-20.020,-152.832,-59.082,0
1594888424.652,-90.820,-11.719,72.266,-58.594,0
1594888424.656,-96.191,-10.254,36.621,-58.594,0
1594888424.660,-100.586,-10.742,-397.461,-55.664,0
1594888424.664,-94.238,8.789,-227.539,-56.152,0
1594888424.668,-88.867,13.184,145.996,-59.570,0
1594888424.666,-90.820,0.000,34.180,-58.105,0
1594888424.670,-96.680,2.930,-229.004,-51.270,0
1594888424.674,-95.215,1.465,-320.312,-47.363,0
1594888424.678,-92.285,-10.254,34.668,-57.617,0
1594888424.682,-89.844,-7.812,116.699,-55.176,0
1594888424.686,-93.750,0.977,-191.406,-50.293,0
1594888424.690,-97.168,-4.883,-348.633,-51.758,0
1594888424.693,-87.402,-11.230,-363.281,-43.945,0
1594888424.697,-78.613,-12.207,-14.160,-51.270,0
1594888424.701,-82.031,-15.625,-12.207,-48.828,0
1594888424.705,-86.914,-7.324,-208.008,-40.039,0
1594888424.709,-84.961,-3.906,-62.012,-43.457,0
1594888424.719,-85.449,-8.789,60.059,-42.480,0
1594888424.723,-93.262,-9.766,-13.672,-43.457,0
1594888424.727,-106.934,-14.648,-141.602,-47.363,0
1594888424.731,-103.516,-10.742,-195.801,-46.875,0
1594888424.735,-91.309,-8.789,-337.891,-44.434,0
1594888424.739,-94.727,-22.461,-501.953,-40.527,0
1594888424.743,-95.215,-6.836,-376.465,-39.551,0
1594888424.746,-88.379,8.789,-118.164,-40.527,0
1594888424.750,-81.055,-0.977,41.016,-41.504,0
1594888424.754,-83.984,-11.230,-287.109,-43.457,0
1594888424.758,-93.262,1.465,-182.129,-45.410,0
1594888424.762,-88.379,9.277,40.039,-38.086,0
1594888424.775,-73.730,13.672,27.344,-33.691,0
1594888424.779,-69.824,20.020,-80.078,-44.434,0
1594888424.783,-80.566,22.461,-201.172,-48.340,0
1594888424.787,-83.984,26.855,-46.387,-40.039,0
1594888424.791,-69.824,29.297,59.082,-37.109,0
1594888424.795,-62.012,27.832,-74.219,-41.016,0
1594888424.799,-65.430,20.020,-291.016,-41.016,0
1594888424.802,-75.195,13.184,-499.023,-33.691,0
1594888424.806,-71.289,22.461,-208.496,-35.156,0
1594888424.810,-61.523,21.484,100.586,-42.969,0
1594888424.814,-73.242,13.672,48.340,-42.480,0
1594888424.818,-87.891,2.930,-176.758,-52.734,0
1594888424.812,-92.773,5.371,-122.559,-63.477,0
1594888424.816,-92.285,-2.930,120.117,-55.176,0
1594888424.820,-95.215,-22.461,80.566,-51.758,0
1594888424.824,-98.145,-16.113,-154.785,-51.758,0
1594888424.828,-98.145,-11.230,-375.977,-43.457,0
1594888424.832,-84.473,-5.859,-237.305,-41.016,0
1594888424.836,-76.172,-2.930,40.039,-50.293,0
1594888424.839,-88.379,-10.254,13.672,-52.246,0
1594888424.843,-98.633,-17.578,-157.715,-54.199,0
1594888424.847,-97.656,-25.391,-364.746,-55.664,0
1594888424.851,-101.562,-20.508,-125.488,-52.734,0
1594888424.855,-104.980,-18.555,-22.949,-54.199,0
1594888424.853,-95.703,-18.555,-93.750,-51.758,0
1594888424.857,-90.332,-18.555,-116.211,-52.734,0
1594888424.861,-84.961,-23.438,-433.105,-49.316,0
1594888424.865,-82.520,-10.254,-275.391,-46.875,0
1594888424.869,-87.891,-10.742,-123.047,-49.316,0
1594888424.873,-83.008,-10.742,-224.121,-46.387,0
1594888424.877,-77.637,-7.812,-111.328,-49.316,0
1594888424.880,-77.148,-8.301,-238.281,-44.434,0
1594888424.884,-73.242,1.953,-39.062,-40.527,0
1594888424.888,-78.613,-3.906,64.941,-46.875,0
1594888424.892,-85.938,-1.953,28.320,-53.711,0
1594888424.896,-79.102,0.488,14.160,-58.594,0
1594888424.908,-87.891,-4.883,-198.730,-62.988,0
1594888424.912,-96.680,-1.953,-221.680,-60.547,0
1594888424.916,-83.984,-7.324,-171.387,-59.082,0
1594888424.920,-75.684,-5.859,-178.711,-74.219,0
1594888424.924,-74.219,-5.859,-334.961,-73.242,0
1594888424.928,-75.684,-3.418,-524.902,-61.523,0
1594888424.932,-78.125,20.508,-242.188,-60.547,0
1594888424.935,-74.707,20.020,48.828,-56.641,0
1594888424.939,-75.195,8.301,39.551,-53.711,0
1594888424.943,-77.637,0.977,-384.766,-52.246,0
1594888424.947,-81.055,1.953,-256.836,-50.293,0
1594888424.951,-76.172,1.953,28.320,-50.781,0
1594888424.962,-75.195,-1.953,56.152,-58.594,1
1594888424.966,-81.543,-10.742,-38.574,-65.430,0
1594888424.970,-81.055,-1.953,-134.766,-61.523,0
1594888424.974,-79.102,18.066,-60.547,-61.523,0
1594888424.978,-81.543,23.926,-124.512,-68.359,0
1594888424.982,-80.566,27.344,-225.098,-68.848,0
1594888424.986,-81.543,27.832,-296.875,-70.801,0
1594888424.989,-80.566,19.531,-484.375,-62.988,0
1594888424.993,-77.148,28.320,-231.445,-57.129,0
1594888424.997,-81.543,31.250,93.750,-62.988,0
1594888425.001,-88.867,19.531,-9.766,-64.941,0
1594888425.005,-87.402,18.555,-132.324,-64.453,0
1594888425.000,-77.637,23.438,-29.785,-70.312,0
1594888425.004,-79.102,27.344,68.359,-74.219,0
1594888425.008,-81.543,26.855,15.137,-76.660,0
1594888425.012,-85.938,18.066,-154.785,-87.402,0
1594888425.016,-76.660,18.555,-246.094,-86.914,0
1594888425.020,-70.312,12.695,-200.195,-86.426,0
1594888425.024,-86.426,7.324,-206.055,-83.496,0
1594888425.027,-94.727,14.160,-215.332,-79.102,0
1594888425.031,-84.473,13.184,-85.938,-84.961,0
1594888425.035,-77.637,2.441,-333.496,-83.496,0
1594888425.039,-76.660,8.789,-304.688,-77.148,0
1594888425.043,-78.125,-1.953,-6.348,-77.148,0
1594888425.056,-73.242,-21.484,71.777,-69.824,0
1594888425.060,-65.918,-26.367,38.574,-72.266,0
1594888425.064,-70.312,-18.066,-100.098,-80.078,0
1594888425.068,-86.426,-15.625,-5.859,-76.660,0
1594888425.072,-97.168,-31.250,-10.254,-70.312,0
1594888425.076,-92.285,-34.180,23.926,-69.824,0
1594888425.080,-93.750,-40.039,-113.770,-68.848,0
1594888425.083,-92.773,-37.598,-383.301,-59.082,0
1594888425.087,-90.332,-20.508,-108.887,-59.570,0
1594888425.091,-83.984,-20.996,57.617,-60.059,0
1594888425.095,-70.312,-17.090,106.934,-59.082,0
1594888425.099,-78.125,-16.602,-104.980,-56.152,0
1594888425.094,-83.008,-8.789,-189.941,-52.246,0
1594888425.098,-73.730,-12.207,58.105,-57.617,0
1594888425.102,-63.965,-12.695,65.430,-52.734,0
1594888425.106,-67.871,-6.836,-104.980,-45.898,0
1594888425.110,-77.637,3.418,-278.809,-59.082,0
1594888425.114,-68.359,41.992,-251.465,-63.965,0
1594888425.118,-55.176,63.477,-80.078,-54.199,0
1594888425.121,-54.688,62.988,52.246,-48.828,0
1594888425.125,-59.570,55.176,-32.227,-54.199,0
1594888425.129,-66.406,41.016,-444.824,-58.105,0
1594888425.133,-72.266,48.340,-193.359,-58.105,0
1594888425.137,-69.824,51.270,52.734,-57.129,0
1594888425.134,-73.242,38.574,-191.406,-59.082,0
1594888425.138,-80.078,37.109,-196.777,-65.430,0
1594888425.142,-79.590,37.598,-303.223,-58.105,0
1594888425.146,-75.195,54.199,-60.059,-58.105,0
1594888425.150,-80.566,62.012,11.230,-51.758,0
1594888425.154,-84.473,65.430,-224.609,-36.621,0
1594888425.158,-83.008,64.453,-268.066,-36.133,0
1594888425.161,-75.684,59.570,-425.781,-38.574,0
1594888425.165,-74.707,69.336,-116.211,-51.270,0
1594888425.169,-84.961,62.988,-36.133,-57.129,0
1594888425.173,-86.426,52.246,-137.695,-52.246,0
1594888425.177,-81.055,52.246,-3.418,-48.340,0
1594888425.187,-87.402,56.152,36.133,-57.129,0
1594888425.191,-94.238,51.270,-24.902,-62.988,0
1594888425.195,-96.191,41.016,-214.355,-63.965,0
1594888425.199,-93.750,36.133,-196.777,-74.707,0
1594888425.203,-83.984,30.273,-252.930,-68.848,0
1594888425.207,-85.938,32.715,-475.586,-55.664,0
1594888425.211,-86.914,41.504,-289.551,-67.383,0
1594888425.214,-75.195,38.086,20.996,-65.918,0
1594888425.218,-72.266,28.320,118.164,-54.199,0
1594888425.222,-70.801,22.461,-284.180,-58.105,0
1594888425.226,-68.359,25.879,-269.043,-64.941,0
1594888425.230,-66.895,22.461,15.625,-61.523,0
1594888425.244,-67.383,19.531,34.180,-61.035,0
1594888425.248,-72.266,13.184,-70.312,-69.824,0
1594888425.252,-78.613,14.160,-273.438,-72.266,0
1594888425.256,-83.008,23.438,-122.070,-66.406,0
1594888425.260,-83.984,20.508,92.285,-65.918,0
1594888425.264,-83.008,15.625,-97.168,-66.406,0
1594888425.268,-84.473,6.348,-288.574,-66.406,0
1594888425.271,-86.914,-1.465,-476.074,-62.988,0
1594888425.275,-83.496,6.348,-183.594,-63.965,0
1594888425.279,-71.777,-1.465,119.141,-67.871,0
1594888425.283,-69.336,-16.113,-9.766,-70.801,0
1594888425.287,-76.172,-14.160,-174.316,-70.312,0
1594888425.281,-67.383,-5.371,-97.656,-68.848,0
1594888425.285,-60.059,2.441,75.195,-67.383,0
1594888425.289,-77.148,8.789,-77.637,-62.012,0
1594888425.293,-94.238,-1.465,-330.566,-64.453,0
1594888425.297,-103.027,-10.742,-342.773,-65.430,0
1594888425.301,-98.633,-6.836,-255.371,-55.176,0
1594888425.305,-91.309,-2.441,-153.320,-58.594,0
1594888425.308,-93.262,-8.789,-74.707,-65.918,0
1594888425.312,-92.773,-16.113,-201.660,-59.570,0
1594888425.316,-85.938,-20.996,-451.660,-57.617,0
1594888425.320,-82.031,-9.766,-310.059,-58.594,0
1594888425.324,-81.543,-8.301,-97.656,-59.082,0
1594888425.337,-82.520,-13.184,-146.973,-53.223,0
1594888425.341,-78.613,-6.348,-162.598,-54.199,0
1594888425.345,-77.148,-7.324,-140.625,-56.152,0
1594888425.349,-83.496,-7.812,29.297,-54.199,0
1594888425.353,-89.355,-14.160,15.625,-58.105,0
1594888425.357,-87.402,-11.719,-140.625,-66.406,0
1594888425.361,-82.520,-9.766,-232.910,-68.359,0
1594888425.364,-86.426,-16.602,-443.848,-66.895,0
1594888425.368,-93.262,-11.230,-268.555,-70.312,0
1594888425.372,-95.215,-2.441,20.020,-70.312,0
1594888425.376,-95.703,-11.719,-2.930,-62.988,0
1594888425.380,-104.004,-20.020,-235.840,-56.152,0
1594888425.376,-114.258,-6.348,-164.551,-60.547,0
1594888425.380,-112.793,-7.812,60.059,-70.801,0
1594888425.384,-104.492,-17.090,-1.953,-58.594,0
1594888425.388,-99.609,-17.090,-166.504,-53.223,0
1594888425.392,-106.445,-22.949,-323.242,-59.570,0
1594888425.396,-110.352,-21.484,-373.535,-58.594,0
1594888425.400,-102.539,-7.324,-145.996,-70.312,0
1594888425.403,-87.402,-9.277,60.547,-71.289,0
1594888425.407,-84.961,-21.484,-20.508,-66.895,0
1594888425.411,-100.098,-30.273,-463.867,-60.547,0
1594888425.415,-94.238,-16.602,-270.508,-58.105,0
1594888425.419,-77.637,-14.160,128.906,-65.918,0
1594888425.431,-77.637,-26.855,100.098,-62.012,0
1594888425.435,-76.660,-25.391,-92.285,-60.547,0
1594888425.439,-72.754,-15.625,-207.520,-66.406,0
1594888425.443,-72.754,-9.277,46.875,-75.684,0
1594888425.447,-74.219,-10.254,31.738,-78.125,0
1594888425.451,-87.891,-3.906,-145.508,-75.195,0
1594888425.455,-105.469,-17.090,-287.598,-71.289,0
1594888425.458,-101.074,-14.648,-433.105,-74.219,0
1594888425.462,-93.750,14.648,-156.250,-81.055,0
1594888425.466,-102.051,12.695,12.695,-84.961,0
1594888425.470,-98.145,7.324,-94.727,-74.707,0
1594888425.474,-84.473,15.137,-225.586,-65.430,0
1594888425.469,-77.637,19.531,-113.281,-80.078,0
1594888425.473,-80.078,25.391,99.609,-80.078,0
1594888425.477,-85.449,44.434,-79.590,-72.266,0
1594888425.481,-81.543,50.293,-223.145,-78.613,0
1594888425.485,-75.195,41.504,-298.828,-80.566,0
1594888425.489,-81.543,37.109,-303.223,-81.055,0
1594888425.493,-93.750,32.227,-297.363,-82.031,0
1594888425.496,-89.355,35.156,-207.031,-74.219,0
1594888425.500,-83.984,30.762,45.898,-72.266,0
1594888425.504,-83.984,20.508,-219.727,-64.941,0
1594888425.508,-86.914,28.809,-291.504,-61.523,0
1594888425.512,-85.938,31.250,-0.488,-60.547,0
1594888425.525,-79.102,26.367,39.062,-57.617,0
1594888425.529,-80.566,22.461,26.367,-60.059,0
1594888425.533,-83.496,17.578,-139.648,-54.199,0
1594888425.537,-87.891,23.438,-167.480,-53.711,0
1594888425.541,-91.797,20.020,-184.570,-63.477,0
1594888425.545,-96.191,17.578,-215.820,-69.824,0
1594888425.549,-94.727,15.625,-251.465,-64.453,0
1594888425.552,-91.309,4.395,-475.586,-60.547,0
1594888425.556,-83.008,13.672,-263.672,-67.871,0
1594888425.560,-80.566,18.066,63.477,-59.082,0
1594888425.564,-86.426,7.324,81.543,-58.594,0
1594888425.568,-92.285,5.859,-117.188,-59.570,0
1594888425.562,-93.262,13.184,-211.426,-57.129,0
1594888425.566,-85.938,16.113,-23.438,-62.988,0
1594888425.570,-82.031,13.672,-68.359,-65.430,0
1594888425.574,-82.520,11.719,-266.113,-55.176,0
1594888425.578,-88.867,7.812,-326.660,-50.781,0
1594888425.582,-86.426,9.277,-226.562,-52.246,0
1594888425.586,-71.777,17.578,-56.152,-39.062,0
1594888425.589,-83.984,12.207,-2.441,-45.898,0
1594888425.593,-93.262,6.836,-71.289,-52.246,0
1594888425.597,-79.102,2.930,-341.309,-45.898,0
1594888425.601,-66.406,4.395,-178.223,-41.992,0
1594888425.605,-68.359,-0.488,-104.004,-47.363,0
1594888425.619,-75.684,-2.441,-126.953,-61.523,0
1594888425.623,-64.453,-7.812,0.977,-62.012,0
1594888425.627,-50.781,-24.902,-229.492,-55.176,0
1594888425.631,-51.758,-23.438,-174.805,-56.641,0
1594888425.635,-54.199,-23.926,-115.234,-58.594,0
1594888425.639,-56.152,-16.113,-189.941,-52.734,0
1594888425.643,-55.176,-16.113,-228.027,-55.176,0
1594888425.646,-61.035,-24.902,-333.008,-53.223,0
1594888425.650,-70.312,-20.020,15.137,-54.688,0
1594888425.654,-80.566,-21.484,141.602,-58.105,0
1594888425.658,-77.148,-17.090,85.938,-51.270,0
1594888425.662,-62.500,-16.113,54.199,-44.922,0
1594888425.657,-62.012,-23.438,46.387,-49.805,0
1594888425.661,-73.730,-16.113,47.852,-56.641,0
1594888425.665,-78.613,-19.531,22.461,-58.105,0
1594888425.669,-78.613,-24.902,81.055,-55.176,0
1594888425.673,-86.914,-28.320,-124.512,-51.270,0
1594888425.677,-84.473,-25.879,-508.789,-36.133,0
1594888425.681,-76.660,-6.836,-191.406,-43.457,0
1594888425.684,-75.195,-3.418,134.766,-56.641,0
1594888425.688,-84.473,-11.719,60.059,-54.199,0
1594888425.692,-96.191,-14.648,-298.340,-53.711,0
1594888425.696,-104.004,-5.371,-177.246,-52.246,0
1594888425.700,-95.215,-11.719,136.719,-51.270,0
1594888425.712,-78.613,-17.578,63.477,-54.199,0
1594888425.716,-83.984,-24.902,-38.574,-61.035,0
1594888425.720,-87.402,-19.043,-89.844,-59.082,0
1594888425.724,-76.172,-9.766,29.297,-57.129,0
1594888425.728,-73.242,-20.508,19.531,-67.871,0
1594888425.732,-81.055,-23.438,-61.035,-82.520,0
1594888425.736,-85.938,-20.020,-258.789,-75.684,0
1594888425.739,-74.219,-17.578,-392.578,-61.035,0
1594888425.743,-65.918,-5.859,-104.492,-58.594,0
1594888425.747,-67.383,0.488,96.680,-56.641,0
1594888425.751,-71.289,-1.953,15.137,-62.012,0
1594888425.755,-72.266,-4.395,-189.941,-65.918,0
1594888425.750,-65.918,7.324,-72.754,-59.082,0
1594888425.754,-65.430,6.836,-3.418,-60.059,0
1594888425.758,-77.637,-7.324,-181.641,-63.477,0
1594888425.762,-77.148,-6.836,-199.219,-60.059,0
1594888425.766,-73.242,-3.418,-288.086,-59.570,0
1594888425.770,-83.984,0.977,-274.902,-67.383,0
1594888425.774,-92.285,0.977,-216.309,-58.105,0
1594888425.777,-95.703,-2.441,-226.562,-47.363,2
1594888425.781,-92.285,4.883,-91.309,-51.270,0
1594888425.785,-86.426,-7.324,-339.355,-53.711,0
1594888425.789,-89.844,-11.230,-377.441,-56.641,0
1594888425.793,-94.238,-6.348,-161.133,-58.594,0
1594888425.806,-91.309,-14.160,-104.980,-54.688,0
1594888425.810,-83.008,-16.113,-43.945,-49.316,0
1594888425.814,-87.402,-16.602,-104.492,-56.641,0
1594888425.818,-96.191,-20.020,6.836,-57.617,0
1594888425.822,-92.773,-20.508,-77.637,-55.176,0
1594888425.826,-86.426,-19.531,-190.918,-66.406,0
1594888425.830,-80.566,-18.066,-204.590,-65.430,0
1594888425.833,-83.008,-16.602,-400.879,-54.199,0
1594888425.837,-89.844,-10.742,-291.504,-57.617,0
1594888425.841,-82.520,-12.207,-20.508,-62.988,0
1594888425.845,-76.172,-21.484,12.695,-62.988,0
1594888425.849,-87.891,-24.414,-229.004,-64.453,0
1594888425.845,-93.262,-20.508,-212.402,-62.988,0
1594888425.849,-86.914,-22.461,68.848,-60.547,0
1594888425.853,-82.520,-30.273,-15.625,-58.105,0
1594888425.857,-86.426,-32.715,-213.379,-65.430,0
1594888425.861,-95.703,-32.715,-332.520,-62.988,0
1594888425.865,-99.609,-28.809,-322.266,-54.199,0
1594888425.869,-91.797,-21.484,-120.605,-52.734,0
1594888425.872,-79.590,-20.996,12.695,-49.316,0
1594888425.876,-84.473,-22.461,-61.035,-47.363,0
1594888425.880,-89.844,-26.367,-348.145,-40.527,0
1594888425.884,-86.914,-15.137,-170.410,-41.992,0
1594888425.888,-87.891,-11.230,102.539,-56.641,0
1594888425.884,-103.516,-19.043,-88.379,-58.105,0
1594888425.888,-121.094,-21.973,-302.734,-45.898,0
1594888425.892,-118.652,-22.949,-218.262,-50.293,0
1594888425.896,-112.793,-14.160,57.129,-51.758,0
1594888425.900,-115.723,-34.668,18.555,-41.992,0
1594888425.904,-112.793,-47.363,-250.000,-41.504,0
1594888425.908,-106.445,-43.945,-305.664,-45.898,0
1594888425.911,-101.562,-52.246,-376.465,-46.875,0
1594888425.915,-99.609,-30.762,-156.250,-50.293,0
1594888425.919,-97.168,-20.996,105.469,-56.641,0
1594888425.923,-95.703,-26.855,67.383,-59.082,0
1594888425.927,-87.891,-28.320,22.461,-57.617,0
1594888425.937,-89.355,-20.020,50.781,-61.523,0
1594888425.941,-95.215,-10.254,77.148,-60.059,0
1594888425.945,-93.262,-12.695,-56.152,-50.293,0
1594888425.949,-86.914,-12.695,-160.645,-53.711,0
1594888425.953,-85.938,-18.555,-336.426,-54.688,0
1594888425.957,-94.238,-15.625,-561.523,-49.805,0
1594888425.961,-103.027,2.441,-212.891,-59.082,0
1594888425.964,-97.656,0.488,137.695,-65.918,0
1594888425.968,-82.031,-7.324,66.895,-71.777,0
1594888425.972,-81.543,-13.184,-319.824,-78.125,0
1594888425.976,-83.496,-8.301,-217.285,-82.520,0
1594888425.980,-70.312,1.953,0.977,-82.031,0
1594888425.994,-66.406,-0.488,17.090,-76.660,0
1594888425.998,-77.637,-9.277,34.668,-74.707,0
1594888426.002,-91.309,-11.230,-199.707,-68.359,0
1594888426.006,-93.750,-5.371,-232.422,-57.617,0
1594888426.010,-85.938,-6.348,-121.582,-50.781,0
1594888426.014,-86.426,-12.207,-167.969,-47.852,0
1594888426.018,-94.727,-18.066,-306.152,-44.922,0
1594888426.021,-93.750,-19.531,-516.602,-35.156,0
1594888426.025,-81.543,-6.348,-197.266,-31.738,0
1594888426.029,-73.730,-8.789,164.551,-39.062,0
1594888426.033,-82.520,-8.789,45.898,-49.316,0
1594888426.037,-86.426,-9.766,-87.891,-51.270,0
1594888426.031,-82.520,-11.719,-52.246,-54.199,0
1594888426.035,-82.031,-5.859,82.520,-61.523,0
1594888426.039,-86.914,-9.277,-9.277,-60.547,0
1594888426.043,-87.891,-9.277,-231.445,-54.688,0
1594888426.047,-83.008,-6.836,-350.098,-50.293,0
1594888426.051,-72.754,3.418,-242.676,-55.176,0
1594888426.055,-63.477,14.648,-197.754,-55.664,0
1594888426.058,-71.289,15.137,-140.137,-56.152,0
1594888426.062,-79.102,5.859,-14.160,-62.500,0
1594888426.066,-75.195,-0.977,-403.320,-58.105,0
1594888426.070,-70.312,6.348,-350.586,-54.199,0
1594888426.074,-77.148,10.254,19.043,-51.758,0
1594888426.072,-80.078,7.324,-31.250,-62.988,0
1594888426.076,-70.801,3.906,-30.273,-76.660,0
1594888426.080,-71.289,-1.953,-11.719,-66.895,0
1594888426.084,-84.473,-7.324,63.965,-65.430,0
1594888426.088,-86.914,-10.742,-63.965,-73.730,0
1594888426.092,-82.031,-5.859,-181.641,-63.965,0
1594888426.096,-80.566,0.488,-190.918,-60.059,0
1594888426.099,-82.031,-2.930,-395.508,-59.570,0
1594888426.103,-85.938,0.000,-261.719,-71.777,0
1594888426.107,-86.914,-2.441,-152.832,-73.730,0
1594888426.111,-83.008,-2.441,-56.152,-65.918,0
1594888426.115,-82.031,-8.301,-126.465,-71.289,0
1594888426.126,-94.238,-5.859,-333.496,-66.895,0
1594888426.130,-100.098,11.719,-171.387,-58.105,0
1594888426.134,-87.891,7.324,-63.477,-57.129,0
1594888426.138,-79.102,-0.977,-119.629,-66.406,0
1594888426.142,-87.891,-7.812,-282.715,-74.219,0
1594888426.146,-98.633,-9.766,-485.840,-53.711,0
1594888426.150,-85.938,1.465,-148.438,-46.875,0
1594888426.153,-73.730,5.859,172.363,-56.641,0
1594888426.157,-82.520,5.371,58.105,-50.293,0
1594888426.161,-87.402,0.488,-390.625,-34.180,0
1594888426.165,-86.426,7.812,-220.703,-35.156,0
1594888426.169,-80.566,9.277,154.297,-45.898,0
1594888426.181,-72.266,3.906,66.895,-40.039,0
1594888426.185,-81.055,5.371,-16.113,-39.062,0
1594888426.189,-84.961,6.836,-169.434,-37.109,0
1594888426.193,-71.289,10.254,-237.305,-28.320,0
1594888426.197,-72.754,12.207,-232.422,-26.855,0
1594888426.201,-81.543,15.625,-239.258,-39.551,0
1594888426.205,-84.961,4.395,-284.180,-48.340,0
1594888426.208,-75.195,-0.977,-458.496,-40.527,0
1594888426.212,-71.289,10.742,-275.879,-41.992,0
1594888426.216,-78.125,7.324,-118.652,-45.898,0
1594888426.220,-83.984,2.441,-167.969,-44.434,0
1594888426.224,-81.543,5.371,-161.133,-44.922,0
1594888426.219,-77.148,13.672,-70.801,-44.922,0
1594888426.223,-82.520,13.672,77.637,-45.898,0
1594888426.227,-87.891,4.395,-11.230,-34.668,0
1594888426.231,-86.426,-1.465,-166.504,-34.668,0
1594888426.235,-87.891,-14.648,-203.125,-43.457,0
1594888426.239,-98.145,-18.066,-265.137,-41.992,0
1594888426.243,-103.516,-20.996,-282.227,-42.969,0
1594888426.246,-98.633,-19.043,-232.910,-44.922,0
1594888426.250,-90.332,-18.066,-214.355,-45.898,0
1594888426.254,-87.891,-27.344,-516.602,-40.039,0
1594888426.258,-93.750,-15.625,-476.074,-40.527,0
1594888426.262,-90.332,-1.953,-250.977,-41.504,0
1594888426.275,-86.914,-3.418,-186.523,-37.598,0
1594888426.279,-82.520,-7.324,-97.656,-36.621,0
1594888426.283,-87.891,-8.789,-183.105,-37.109,0
1594888426.287,-102.051,-17.578,-208.496,-41.504,0
1594888426.291,-104.004,-26.855,-181.152,-41.504,0
1594888426.295,-101.074,-27.832,-190.918,-41.504,0
1594888426.299,-99.609,-27.344,-253.906,-42.480,0
1594888426.302,-96.191,-24.414,-421.387,-41.992,0
1594888426.306,-88.867,-14.648,-302.246,-48.340,0
1594888426.310,-88.379,-8.301,-109.375,-42.969,0
1594888426.314,-95.703,-8.789,23.926,-44.434,0
1594888426.318,-103.027,-21.484,-142.090,-45.898,0
1594888426.312,-101.074,-19.531,-195.312,-42.969,0
1594888426.316,-91.797,-8.301,44.434,-45.898,0
1594888426.320,-87.402,-12.695,-61.523,-46.875,0
1594888426.324,-90.332,-17.578,-294.922,-48.340,0
1594888426.328,-89.355,-16.602,-335.938,-49.805,0
1594888426.332,-84.473,-15.137,-332.031,-50.781,0
1594888426.336,-71.777,-14.160,-160.156,-58.594,0
1594888426.339,-66.406,-15.137,-25.391,-52.734,0
1594888426.343,-79.590,-24.414,-135.254,-51.758,0
1594888426.347,-80.566,-42.480,-435.547,-53.223,0
1594888426.351,-68.359,-40.039,-287.109,-53.711,0
1594888426.355,-62.012,-42.969,-186.523,-50.781,0
1594888426.353,-70.312,-36.133,-235.352,-48.828,0
1594888426.357,-73.242,-34.180,-93.750,-55.176,0
1594888426.361,-65.430,-47.363,-203.613,-59.570,0
1594888426.365,-69.336,-39.551,-23.926,-61.523,0
1594888426.369,-83.496,-37.109,30.762,-59.570,0
1594888426.373,-89.844,-39.062,-166.016,-50.293,0
1594888426.377,-84.473,-36.133,-186.035,-50.293,0
1594888426.380,-76.660,-36.621,-328.125,-55.664,0
1594888426.384,-84.473,-36.621,-102.051,-53.223,0
1594888426.388,-89.844,-33.691,87.402,-54.199,0
1594888426.392,-83.984,-27.344,100.098,-56.152,0
1594888426.396,-86.426,-29.297,-39.062,-59.082,0
1594888426.406,-92.773,-28.809,-109.375,-50.781,0
1594888426.410,-98.145,-29.297,-61.523,-36.133,0
1594888426.414,-103.027,-35.156,-260.742,-43.457,0
1594888426.418,-106.934,-31.250,-208.984,-58.594,0
1594888426.422,-106.445,-31.250,-318.848,-59.570,0
1594888426.426,-112.793,-37.598,-593.750,-67.871,0
1594888426.430,-106.934,-27.344,-423.828,-75.195,0
1594888426.433,-91.309,-22.461,-55.664,-70.312,0
1594888426.437,-90.332,-33.691,51.758,-73.242,0
1594888426.441,-90.820,-48.828,-363.770,-62.988,0
1594888426.445,-90.820,-40.039,-308.105,-57.617,0
1594888426.449,-90.332,-35.156,12.695,-63.965,0
1594888426.464,-86.914,-37.598,78.125,-56.641,0
1594888426.468,-92.773,-44.434,-56.641,-48.340,0
1594888426.472,-98.145,-47.363,-212.891,-41.504,0
1594888426.476,-88.379,-35.156,62.012,-34.668,0
1594888426.480,-84.473,-34.180,105.957,-30.273,0
1594888426.484,-84.961,-39.551,-116.699,-28.809,0
1594888426.488,-88.379,-42.480,-267.578,-22.461,0
1594888426.491,-87.891,-40.039,-441.895,-22.461,0
1594888426.495,-76.172,-29.785,-185.059,-30.273,0
1594888426.499,-86.426,-32.715,42.480,-36.621,0
1594888426.503,-98.145,-31.250,-23.926,-29.297,0
1594888426.507,-101.074,-23.926,-115.723,-23.926,0
1594888426.500,-88.867,-19.043,-35.645,-22.461,0
1594888426.504,-81.055,-14.648,78.125,-17.578,0
1594888426.508,-97.656,-16.113,-118.164,-26.855,0
1594888426.512,-106.445,-10.742,-240.234,-32.715,0
1594888426.516,-100.098,-9.766,-212.402,-39.062,0
1594888426.520,-95.703,-10.254,-197.754,-44.922,0
1594888426.524,-102.051,-2.930,-212.891,-46.387,0
1594888426.527,-103.027,-2.441,-259.277,-54.688,0
1594888426.531,-92.773,-1.953,-247.559,-52.246,0
1594888426.535,-85.449,-11.230,-389.160,-39.062,0
1594888426.539,-84.961,-9.277,-499.512,-16.602,0
1594888426.543,-78.613,5.371,-283.691,-10.254,2
1594888426.556,-72.754,-1.465,-82.031,-16.113,0
1594888426.560,-72.266,-11.719,-0.488,-12.207,0
1594888426.564,-87.891,-12.695,-146.484,-18.066,0
1594888426.568,-98.633,-3.906,-112.305,-31.250,0
1594888426.572,-91.309,-0.977,1.953,-32.715,0
1594888426.576,-84.473,0.488,-122.070,-34.180,0
1594888426.580,-77.148,0.000,-250.488,-35.156,0
1594888426.583,-82.520,-8.789,-443.848,-27.344,0
1594888426.587,-94.727,-1.953,-243.164,-26.367,0
1594888426.591,-93.750,0.000,60.059,-25.391,0
1594888426.595,-85.938,-1.953,90.332,-23.926,0
1594888426.599,-80.566,-1.953,-143.066,-27.832,0
1594888426.594,-86.914,0.488,-255.371,-37.598,0
1594888426.598,-90.332,3.418,-43.945,-41.992,0
1594888426.602,-78.613,8.789,-19.043,-36.133,0
1594888426.606,-85.938,5.371,-219.238,-37.109,0
1594888426.610,-103.516,-4.883,-324.219,-34.180,0
1594888426.614,-92.773,14.160,-271.973,-28.809,0
1594888426.618,-84.473,30.273,-29.297,-29.785,0
1594888426.621,-84.473,31.738,130.859,-31.250,0
1594888426.625,-92.773,32.227,118.652,-34.668,0
1594888426.629,-100.098,15.137,-142.578,-28.809,0
1594888426.633,-97.168,10.742,-92.285,-22.461,0
1594888426.637,-94.727,15.137,158.691,-25.391,0
1594888426.634,-96.191,16.602,123.535,-23.438,0
1594888426.638,-94.727,6.348,-63.965,-23.438,0
1594888426.642,-86.426,4.883,-129.883,-31.738,0
1594888426.646,-80.078,14.160,114.258,-34.180,0
1594888426.650,-85.449,1.953,106.934,-29.297,0
1594888426.654,-90.332,0.000,-114.258,-28.809,0
1594888426.658,-76.172,10.254,-209.473,-24.414,0
1594888426.661,-67.383,-7.324,-331.543,-25.391,0
1594888426.665,-67.383,6.836,-99.609,-35.156,0
1594888426.669,-60.059,12.695,136.230,-37.109,0
