timestamps,TP9,AF7,AF8,TP10,Marker0
1594888781.683,-12.695,-865.723,-386.719,-34.180,0
1594888781.687,-12.207,-917.480,-354.004,-46.387,0
1594888781.691,-14.648,-999.023,-451.660,-51.758,0
1594888781.695,-8.789,-920.410,-465.332,-48.340,0
1594888781.699,-8.789,-746.094,-265.137,-48.828,0
1594888781.703,-15.137,-913.086,-527.344,-47.852,0
1594888781.707,-22.461,-1000.000,-674.316,-46.387,0
1594888781.710,-25.391,-796.875,-343.262,-44.922,0
1594888781.714,-13.672,-503.418,-239.258,-41.992,0
1594888781.718,-8.301,-651.855,-338.379,-35.645,0
1594888781.722,-10.742,-881.348,-413.574,-27.832,0
1594888781.726,-15.137,-863.281,-396.973,-32.715,0
1594888781.721,-21.484,-811.035,-341.309,-35.645,0
1594888781.725,-21.484,-728.027,-316.406,-29.785,0
1594888781.729,-25.391,-893.066,-393.555,-33.203,0
1594888781.733,-27.344,-946.777,-399.902,-40.039,0
1594888781.737,-22.461,-945.312,-396.973,-46.387,0
1594888781.741,-16.113,-969.238,-392.578,-51.758,0
1594888781.745,-13.184,-957.031,-342.285,-49.805,0
1594888781.748,-17.090,-994.141,-583.984,-45.410,0
1594888781.752,-16.113,-1000.000,-687.012,-44.922,0
1594888781.756,-10.742,-875.488,-332.520,-40.039,0
1594888781.760,-15.625,-576.172,-224.121,-32.227,0
1594888781.764,-29.785,-595.215,-348.633,-29.297,0
1594888781.775,-29.297,-790.527,-376.953,-21.973,0
1594888781.779,-20.508,-895.508,-353.027,-16.113,0
1594888781.783,-19.043,-935.547,-370.605,-18.066,0
1594888781.787,-20.020,-724.121,-331.055,-20.508,0
1594888781.791,-24.414,-737.793,-348.633,-17.090,0
1594888781.795,-25.391,-993.652,-513.672,-5.859,0
1594888781.799,-17.090,-832.520,-472.656,-0.488,0
1594888781.802,-15.137,-680.664,-266.602,-3.418,0
1594888781.806,-18.066,-632.812,-291.016,-4.395,0
1594888781.810,-12.695,-748.047,-417.969,-8.301,0
1594888781.814,-14.648,-1000.000,-493.652,-10.742,0
1594888781.818,-14.648,-873.047,-360.352,-12.695,0
1594888781.815,-12.695,-716.797,-321.289,-16.602,0
1594888781.819,-13.672,-641.113,-329.102,-19.043,0
1594888781.823,-16.602,-774.414,-344.727,-22.949,0
1594888781.827,-19.531,-693.848,-311.523,-25.879,0
1594888781.831,-24.902,-639.648,-343.750,-23.926,0
1594888781.835,-28.809,-950.684,-447.754,-19.043,0
1594888781.839,-21.484,-973.633,-354.980,-21.973,0
1594888781.842,-15.137,-1000.000,-466.309,-20.020,0
1594888781.846,-16.602,-853.516,-458.008,-22.949,0
1594888781.850,-25.879,-725.586,-349.121,-24.414,0
1594888781.854,-28.809,-899.414,-380.859,-15.137,0
1594888781.858,-15.625,-811.035,-322.266,-12.207,0
1594888781.869,-16.113,-890.137,-458.984,-17.090,0
1594888781.873,-27.344,-1000.000,-481.445,-17.090,0
1594888781.877,-19.531,-965.332,-413.086,-12.207,0
1594888781.881,-9.766,-788.086,-299.805,-10.742,0
1594888781.885,-18.555,-792.969,-317.871,-11.719,0
1594888781.889,-30.273,-1000.000,-616.699,-13.184,0
1594888781.893,-28.809,-950.684,-571.777,-20.020,0
1594888781.896,-10.742,-738.281,-290.039,-24.902,0
1594888781.900,-8.789,-528.320,-251.465,-24.902,0
1594888781.904,-19.531,-745.605,-405.762,-21.484,0
1594888781.908,-20.996,-899.902,-438.965,-20.020,0
1594888781.912,-14.160,-554.688,-261.719,-23.926,0
1594888781.910,-11.719,-530.273,-322.266,-17.578,0
1594888781.914,-18.555,-764.648,-345.703,-16.602,0
1594888781.918,-22.461,-958.496,-507.812,-15.137,0
1594888781.922,-20.020,-882.812,-521.973,-4.883,0
1594888781.926,-21.484,-687.500,-299.316,-0.488,0
1594888781.930,-38.574,-849.121,-371.094,-1.465,0
1594888781.934,-51.758,-967.285,-395.996,-0.977,0
1594888781.937,-45.898,-1000.000,-516.113,4.395,0
1594888781.941,-32.715,-843.750,-414.062,3.418,0
1594888781.945,-28.320,-522.949,-234.375,-3.418,0
1594888781.949,-20.020,-549.805,-310.547,-0.977,0
1594888781.953,-18.066,-650.879,-340.332,-2.441,0
1594888781.963,-18.555,-759.277,-322.266,-5.371,0
1594888781.967,-10.254,-879.395,-323.242,-4.883,0
1594888781.971,-15.625,-911.621,-381.836,-4.883,0
1594888781.975,-24.414,-886.719,-378.418,-5.859,0
1594888781.979,-17.090,-966.309,-366.211,-4.883,0
1594888781.983,-6.836,-1000.000,-561.035,5.371,0
1594888781.987,-8.789,-961.914,-587.402,7.812,0
1594888781.990,-11.719,-723.633,-333.984,-2.930,0
1594888781.994,-8.301,-361.816,-229.492,-3.418,0
1594888781.998,-7.812,-483.398,-299.805,-4.883,0
1594888782.002,-13.184,-750.488,-362.793,-13.184,0
1594888782.006,-18.555,-579.590,-308.105,-10.254,0
1594888782.002,-16.602,-633.301,-349.609,-6.348,0
1594888782.006,-6.836,-634.766,-276.855,-1.465,0
1594888782.010,-4.395,-804.199,-354.492,-1.953,0
1594888782.014,-16.602,-910.645,-407.715,-13.184,0
1594888782.018,-22.949,-822.754,-376.953,-14.648,0
1594888782.022,-24.414,-942.383,-415.527,-14.648,0
1594888782.026,-26.855,-989.258,-378.418,-19.531,0
1594888782.029,-31.250,-1000.000,-543.945,-16.113,0
1594888782.033,-31.738,-983.398,-589.355,-8.301,0
1594888782.037,-20.020,-685.059,-295.410,-7.812,0
1594888782.041,-12.695,-489.258,-266.602,-14.648,0
1594888782.045,-18.066,-644.043,-340.820,-14.160,0
1594888782.057,-25.391,-852.051,-392.578,-12.207,0
1594888782.061,-29.785,-991.211,-412.109,-20.996,0
1594888782.065,-32.715,-848.633,-318.359,-33.203,0
1594888782.069,-28.809,-606.445,-271.484,-31.250,0
1594888782.073,-27.344,-715.820,-356.934,-25.391,0
1594888782.077,-35.156,-1000.000,-608.398,-27.832,0
1594888782.081,-35.645,-833.496,-511.230,-25.879,0
1594888782.084,-25.391,-472.168,-253.418,-24.902,0
1594888782.088,-25.879,-535.156,-289.062,-37.109,0
1594888782.092,-30.762,-830.566,-421.875,-36.621,0
1594888782.096,-23.438,-910.645,-448.242,-32.227,0
1594888782.100,-16.113,-598.145,-255.371,-36.621,0
1594888782.097,-19.043,-563.477,-297.363,-29.297,0
1594888782.101,-18.066,-794.922,-391.113,-23.438,0
1594888782.105,-17.090,-1000.000,-458.496,-24.902,0
1594888782.109,-19.043,-783.203,-319.336,-32.715,0
1594888782.113,-15.137,-661.133,-304.199,-34.668,0
1594888782.117,-17.578,-976.562,-513.672,-27.344,0
1594888782.121,-17.578,-1000.000,-429.688,-26.855,0
1594888782.124,-10.742,-1000.000,-485.352,-18.066,0
1594888782.128,-14.160,-937.988,-545.898,-17.578,0
1594888782.132,-18.555,-784.668,-341.309,-32.715,0
1594888782.136,-17.090,-795.410,-347.656,-34.180,0
1594888782.140,-18.555,-892.578,-377.441,-32.715,0
1594888782.152,-9.766,-970.215,-415.527,-32.715,0
1594888782.156,-5.859,-981.445,-448.242,-27.832,0
1594888782.160,-18.066,-991.211,-454.102,-26.367,0
1594888782.164,-24.414,-724.121,-313.965,-19.043,0
1594888782.168,-16.602,-568.848,-256.348,-13.672,0
1594888782.172,-18.555,-893.066,-578.613,-13.184,0
1594888782.176,-25.391,-990.234,-629.395,-11.719,0
1594888782.179,-25.391,-766.602,-295.410,-14.160,0
1594888782.183,-18.555,-620.117,-270.996,-22.461,0
1594888782.187,-16.602,-803.711,-429.199,-24.902,0
1594888782.191,-27.344,-948.730,-463.379,-23.438,0
1594888782.195,-31.250,-599.609,-242.676,-23.438,0
1594888782.190,-17.578,-427.734,-204.102,-21.484,0
1594888782.194,-11.230,-396.484,-234.863,-31.738,0
1594888782.198,-26.855,-716.309,-409.668,-36.621,0
1594888782.202,-32.715,-1000.000,-465.332,-34.180,0
1594888782.206,-21.973,-773.926,-296.387,-25.879,0
1594888782.210,-19.043,-848.145,-374.512,-20.508,0
1594888782.214,-20.020,-1000.000,-429.199,-21.973,0
1594888782.217,-22.949,-1000.000,-568.359,-25.391,0
1594888782.221,-19.043,-980.469,-565.430,-30.273,0
1594888782.225,-17.578,-706.543,-276.855,-39.551,0
1594888782.229,-26.367,-744.629,-356.445,-39.551,0
1594888782.233,-33.203,-1000.000,-472.168,-41.016,0
1594888782.244,-21.484,-974.609,-421.875,-42.480,0
1594888782.248,-15.625,-964.844,-403.320,-42.969,0
1594888782.252,-30.762,-958.496,-384.766,-44.434,2
1594888782.256,-39.551,-809.082,-352.051,-39.062,0
1594888782.260,-37.598,-840.820,-350.586,-42.480,0
1594888782.264,-30.273,-985.352,-539.551,-37.109,0
1594888782.268,-30.273,-987.793,-539.551,-35.156,0
1594888782.271,-34.668,-886.230,-377.930,-41.504,0
1594888782.275,-30.762,-627.930,-292.969,-38.574,0
1594888782.279,-18.066,-638.184,-323.242,-41.016,0
1594888782.283,-14.648,-859.375,-422.363,-45.898,0
1594888782.287,-22.949,-624.512,-301.758,-51.270,0
1594888782.283,-25.391,-708.496,-384.766,-49.316,0
1594888782.287,-22.461,-771.973,-343.262,-44.922,0
1594888782.291,-20.020,-776.855,-337.402,-41.504,0
1594888782.295,-22.949,-931.152,-372.070,-31.250,0
1594888782.299,-23.438,-899.414,-389.160,-29.785,0
1594888782.303,-9.277,-986.816,-497.070,-28.809,0
1594888782.307,0.977,-1000.000,-408.203,-19.043,0
1594888782.310,-8.789,-975.098,-525.879,-17.090,0
1594888782.314,-23.438,-1000.000,-626.953,-25.391,0
1594888782.318,-25.879,-847.168,-350.098,-30.273,0
1594888782.322,-20.508,-393.066,-154.297,-24.414,0
1594888782.326,-18.555,-364.258,-267.090,-20.508,0
1594888782.338,-18.555,-736.816,-419.434,-15.137,0
1594888782.342,-17.090,-866.699,-326.172,-15.137,0
1594888782.346,-14.648,-834.473,-325.195,-22.461,0
1594888782.350,-14.648,-621.094,-278.320,-22.461,0
1594888782.354,-16.602,-624.023,-308.594,-19.043,0
1594888782.358,-20.020,-967.773,-625.977,-20.020,0
1594888782.362,-17.578,-868.164,-553.223,-19.043,0
1594888782.365,-3.418,-462.891,-220.215,-17.090,0
1594888782.369,-3.418,-370.605,-245.117,-27.832,0
1594888782.373,-10.742,-718.750,-411.133,-29.297,0
1594888782.377,-7.324,-900.879,-452.637,-19.531,0
1594888782.381,-0.488,-827.637,-316.406,-28.809,0
1594888782.379,-2.930,-860.840,-327.148,-31.738,0
1594888782.383,-12.695,-643.555,-294.434,-33.691,0
1594888782.387,-13.184,-766.113,-373.047,-32.715,0
1594888782.391,-10.742,-1000.000,-446.777,-29.297,0
1594888782.395,-14.160,-725.098,-282.715,-33.691,0
1594888782.399,-21.484,-699.219,-363.281,-33.203,0
1594888782.403,-26.367,-919.434,-386.719,-33.203,0
1594888782.406,-24.414,-979.980,-482.910,-30.273,0
1594888782.410,-24.414,-866.211,-503.906,-27.344,0
1594888782.414,-21.973,-570.312,-254.883,-29.785,0
1594888782.418,-26.855,-568.848,-292.480,-31.250,0
1594888782.422,-23.438,-704.590,-368.164,-29.785,0
1594888782.432,-12.695,-881.348,-404.297,-31.738,0
1594888782.436,-18.555,-976.562,-424.316,-31.738,0
1594888782.440,-23.438,-1000.000,-490.234,-29.785,0
1594888782.444,-28.809,-888.184,-435.059,-32.715,0
1594888782.448,-25.391,-731.934,-297.363,-33.203,0
1594888782.452,-16.602,-932.129,-550.781,-31.250,0
1594888782.456,-25.391,-997.070,-652.344,-31.738,0
1594888782.459,-28.809,-613.770,-259.766,-36.621,0
1594888782.463,-19.531,-179.199,-105.957,-30.762,0
1594888782.467,-22.461,-478.516,-266.113,-33.691,0
1594888782.471,-26.367,-794.922,-381.348,-41.992,0
1594888782.475,-15.625,-721.191,-325.195,-38.574,0
1594888782.471,-3.906,-658.691,-289.551,-37.598,0
1594888782.475,-7.812,-322.754,-180.176,-44.434,0
1594888782.479,-9.766,-654.297,-348.145,-43.945,0
1594888782.483,-14.160,-847.656,-368.164,-35.156,0
1594888782.487,-14.160,-395.996,-198.242,-33.203,0
1594888782.491,-1.953,-377.441,-214.355,-34.668,0
1594888782.495,-6.348,-668.457,-253.906,-37.109,0
1594888782.498,-17.090,-960.449,-561.035,-29.785,0
1594888782.502,-21.484,-973.145,-592.773,-34.668,0
1594888782.506,-14.160,-750.000,-260.742,-41.992,0
1594888782.510,-14.160,-472.656,-191.895,-41.016,0
1594888782.514,-25.391,-497.559,-310.059,-41.016,0
1594888782.525,-31.738,-805.664,-397.949,-38.574,0
1594888782.529,-30.762,-881.836,-330.566,-38.574,0
1594888782.533,-26.855,-860.840,-351.074,-39.062,0
1594888782.537,-31.250,-737.305,-318.359,-46.875,0
1594888782.541,-30.762,-708.496,-305.664,-52.734,0
1594888782.545,-16.113,-993.652,-541.016,-49.805,0
1594888782.549,-15.137,-828.613,-453.613,-57.617,0
1594888782.552,-17.090,-669.922,-319.336,-56.152,0
1594888782.556,-18.066,-885.254,-394.043,-41.992,0
1594888782.560,-23.438,-876.465,-365.234,-44.922,0
1594888782.564,-17.090,-867.676,-386.719,-39.551,0
1594888782.568,-29.297,-669.922,-290.527,-40.039,0
1594888782.565,-40.527,-607.910,-277.344,-46.875,0
1594888782.569,-36.133,-423.340,-195.312,-46.387,0
1594888782.573,-29.297,-645.020,-338.867,-43.457,0
1594888782.577,-30.762,-765.625,-351.562,-41.992,0
1594888782.581,-30.273,-649.414,-306.152,-41.504,0
1594888782.585,-31.738,-970.215,-430.664,-43.945,0
1594888782.589,-26.367,-967.285,-353.516,-48.340,0
1594888782.592,-20.020,-975.098,-496.094,-50.293,0
1594888782.596,-24.902,-931.641,-521.973,-50.293,0
1594888782.600,-25.391,-710.938,-309.570,-56.152,0
1594888782.604,-18.066,-809.082,-407.715,-61.035,0
1594888782.608,-15.625,-1000.000,-464.355,-52.734,0
1594888782.619,-16.113,-996.094,-512.207,-40.039,0
1594888782.623,-22.461,-999.512,-531.738,-38.086,0
1594888782.627,-28.320,-944.824,-431.641,-45.410,0
1594888782.631,-19.043,-713.867,-313.477,-48.340,0
1594888782.635,-18.066,-717.773,-293.457,-52.734,0
1594888782.639,-24.902,-999.512,-648.926,-51.758,0
1594888782.643,-24.414,-961.426,-648.926,-49.805,0
1594888782.646,-20.508,-892.578,-377.441,-54.199,0
1594888782.650,-11.230,-826.172,-346.680,-52.734,0
1594888782.654,-9.766,-839.355,-433.105,-57.129,0
1594888782.658,-22.461,-1000.000,-575.684,-65.918,0
1594888782.662,-18.066,-956.055,-409.668,-60.059,0
1594888782.660,-12.695,-823.730,-333.496,-64.941,0
1594888782.664,-19.043,-922.852,-390.625,-65.918,0
1594888782.668,-20.020,-1000.000,-568.359,-50.781,0
1594888782.672,-20.996,-957.031,-542.969,-57.617,0
1594888782.676,-22.949,-838.867,-333.496,-65.430,0
1594888782.680,-22.949,-930.664,-457.520,-61.035,0
1594888782.684,-22.949,-999.512,-465.820,-59.570,0
1594888782.687,-30.273,-1000.000,-609.375,-57.129,0
1594888782.691,-23.926,-854.492,-520.996,-54.688,0
1594888782.695,-12.207,-529.785,-256.836,-57.617,0
1594888782.699,-20.020,-670.410,-366.699,-58.105,0
1594888782.703,-23.438,-910.156,-422.852,-59.570,0
1594888782.713,-18.555,-935.547,-389.160,-62.988,0
1594888782.717,-22.949,-948.242,-356.934,-65.430,0
1594888782.721,-28.809,-953.613,-392.090,-62.500,0
1594888782.725,-38.086,-793.945,-363.281,-52.734,0
1594888782.729,-41.016,-822.754,-325.195,-46.387,0
1594888782.733,-34.180,-1000.000,-532.715,-47.363,0
1594888782.737,-26.855,-958.984,-561.035,-50.781,0
1594888782.740,-25.879,-762.207,-321.777,-56.152,0
1594888782.744,-20.020,-642.090,-321.289,-52.734,0
1594888782.748,-9.277,-600.586,-311.523,-45.898,0
1594888782.752,-11.719,-707.520,-324.707,-53.223,0
1594888782.756,-11.230,-653.320,-318.359,-46.875,0
1594888782.752,-11.719,-621.094,-310.059,-41.992,0
1594888782.756,-9.277,-616.699,-261.230,-43.945,0
1594888782.760,-12.207,-823.242,-439.453,-46.387,0
1594888782.764,-22.949,-1000.000,-537.109,-54.199,0
1594888782.768,-25.879,-972.656,-417.480,-58.105,0
1594888782.772,-21.973,-982.422,-421.387,-61.035,0
1594888782.776,-21.973,-988.281,-399.414,-66.895,0
1594888782.779,-21.484,-999.023,-595.215,-60.547,0
1594888782.783,-20.020,-993.652,-627.441,-47.363,0
1594888782.787,-17.090,-761.230,-299.316,-53.711,0
1594888782.791,-11.230,-439.453,-226.562,-62.012,0
1594888782.795,-14.648,-517.090,-311.035,-55.664,0
1594888782.807,-24.902,-789.062,-365.234,-56.641,0
1594888782.811,-27.832,-921.875,-339.844,-63.965,0
1594888782.815,-23.438,-822.754,-304.688,-57.617,0
1594888782.819,-20.020,-442.871,-216.797,-56.641,0
1594888782.823,-22.949,-595.215,-305.176,-75.195,0
1594888782.827,-21.484,-1000.000,-588.867,-71.289,0
1594888782.831,-16.113,-830.078,-457.520,-58.105,0
1594888782.834,-11.719,-367.676,-166.504,-59.082,0
1594888782.838,-18.066,-359.375,-227.051,-61.035,0
1594888782.842,-29.785,-777.832,-423.340,-58.105,0
1594888782.846,-27.832,-901.855,-396.484,-54.199,0
1594888782.850,-20.996,-656.250,-266.113,-55.176,0
1594888782.847,-23.438,-674.316,-347.168,-60.059,0
1594888782.851,-21.484,-602.051,-263.672,-58.105,0
1594888782.855,-18.555,-826.660,-426.270,-50.781,0
1594888782.859,-13.184,-888.184,-512.207,-45.898,0
1594888782.863,-10.742,-612.305,-294.434,-39.551,0
1594888782.867,-19.531,-830.078,-410.645,-53.711,0
1594888782.871,-19.531,-999.023,-414.551,-58.594,0
1594888782.874,-19.043,-991.699,-483.398,-46.387,0
1594888782.878,-22.949,-907.715,-507.812,-48.340,0
1594888782.882,-21.973,-790.039,-337.891,-50.781,0
1594888782.886,-14.160,-855.469,-366.699,-51.270,0
1594888782.890,-8.301,-878.418,-357.422,-53.711,0
1594888782.902,-6.348,-961.426,-423.828,-52.246,0
1594888782.906,-6.836,-996.582,-461.914,-46.875,0
1594888782.910,-16.602,-1000.000,-509.766,-55.176,0
1594888782.914,-16.113,-862.305,-385.742,-62.500,0
1594888782.918,-13.672,-748.535,-280.762,-60.059,0
1594888782.922,-19.531,-976.074,-581.543,-56.641,0
1594888782.926,-27.344,-992.676,-639.160,-50.293,0
1594888782.929,-34.668,-702.637,-270.020,-54.199,0
1594888782.933,-22.461,-292.969,-145.996,-55.176,0
1594888782.937,-16.602,-486.328,-305.176,-49.805,0
1594888782.941,-27.832,-930.664,-432.617,-45.410,0
1594888782.945,-24.414,-728.516,-318.359,-41.016,0
1594888782.940,-19.531,-511.230,-260.254,-45.898,0
1594888782.944,-22.949,-395.020,-212.402,-47.852,0
1594888782.948,-29.297,-689.941,-396.484,-45.410,0
1594888782.952,-21.973,-1000.000,-474.609,-44.922,0
1594888782.956,-15.137,-926.758,-355.957,-45.410,0
1594888782.960,-23.438,-961.426,-418.945,-50.293,0
1594888782.964,-31.250,-997.559,-410.156,-50.293,0
1594888782.967,-34.668,-1000.000,-560.547,-49.316,0
1594888782.971,-32.715,-979.492,-563.477,-44.434,0
1594888782.975,-29.297,-696.289,-277.344,-42.480,0
1594888782.979,-26.855,-601.074,-290.039,-41.504,0
1594888782.983,-30.273,-892.090,-446.777,-36.133,0
1594888782.994,-30.762,-951.660,-400.391,-33.691,0
1594888782.998,-26.367,-775.879,-257.324,-42.480,0
1594888783.002,-27.344,-709.961,-288.574,-49.316,0
1594888783.006,-26.855,-629.395,-311.523,-46.875,0
1594888783.010,-26.855,-707.031,-325.684,-53.223,0
1594888783.014,-20.996,-922.852,-513.184,-55.176,1
1594888783.018,-13.184,-1000.000,-531.738,-47.852,0
1594888783.021,-8.301,-785.645,-304.688,-46.387,0
1594888783.025,-16.602,-543.457,-271.484,-49.316,0
1594888783.029,-11.230,-686.035,-334.473,-49.316,0
1594888783.033,-0.488,-854.004,-379.395,-42.480,0
1594888783.037,-4.883,-666.504,-316.895,-35.156,0
1594888783.033,-4.395,-635.254,-302.734,-40.039,0
1594888783.037,-4.883,-453.125,-207.031,-43.457,0
1594888783.041,-4.395,-569.336,-275.391,-40.039,0
1594888783.045,-8.789,-777.344,-338.867,-52.246,0
1594888783.049,-16.602,-674.316,-344.238,-65.918,0
1594888783.053,-12.207,-908.203,-443.359,-60.059,0
1594888783.057,-12.695,-985.352,-377.441,-61.035,0
1594888783.060,-22.461,-984.375,-487.793,-64.941,0
1594888783.064,-25.879,-906.738,-529.297,-62.500,0
1594888783.068,-28.809,-823.242,-344.238,-73.242,0
1594888783.072,-34.668,-789.551,-330.566,-78.613,0
1594888783.076,-33.691,-846.191,-391.113,-73.242,0
1594888783.088,-32.715,-958.496,-409.668,-69.336,0
1594888783.092,-35.156,-966.797,-427.734,-67.871,0
1594888783.096,-30.273,-888.184,-378.418,-69.336,0
1594888783.100,-26.855,-504.395,-242.676,-66.406,0
1594888783.104,-32.715,-588.379,-293.457,-64.453,0
1594888783.108,-41.504,-992.676,-575.195,-59.570,0
1594888783.112,-35.156,-876.465,-523.438,-50.781,0
1594888783.115,-21.973,-418.457,-163.574,-55.664,0
1594888783.119,-21.973,-285.156,-207.520,-62.012,0
1594888783.123,-20.508,-681.641,-413.086,-57.129,0
1594888783.127,-9.766,-873.535,-436.035,-55.176,0
1594888783.131,-3.906,-617.676,-255.371,-56.641,0
1594888783.129,-2.441,-813.965,-362.305,-60.059,0
1594888783.133,-10.254,-936.523,-376.953,-66.895,0
1594888783.137,-9.766,-963.867,-499.512,-65.430,0
1594888783.141,-4.395,-862.305,-476.562,-63.477,0
1594888783.145,-6.836,-615.234,-267.090,-63.477,0
1594888783.149,-4.395,-832.520,-420.898,-63.965,0
1594888783.153,-10.254,-989.746,-456.543,-65.918,0
1594888783.156,-7.324,-1000.000,-543.945,-60.059,0
1594888783.160,-0.977,-793.945,-411.621,-56.152,0
1594888783.164,-9.277,-536.133,-204.102,-59.082,0
1594888783.168,-14.648,-650.391,-305.664,-59.570,0
1594888783.172,-22.949,-632.812,-288.086,-53.711,0
1594888783.181,-26.367,-644.043,-257.812,-52.734,0
1594888783.185,-29.785,-770.996,-305.176,-58.594,0
1594888783.189,-29.785,-935.547,-424.316,-62.500,0
1594888783.193,-19.531,-999.512,-501.953,-61.035,0
1594888783.197,-22.949,-996.582,-439.941,-58.594,0
1594888783.201,-25.879,-999.512,-564.453,-58.594,0
1594888783.205,-26.855,-986.816,-650.391,-60.547,0
1594888783.208,-26.855,-1000.000,-441.895,-65.918,0
1594888783.212,-19.043,-764.160,-292.969,-66.895,0
1594888783.216,-11.230,-698.730,-321.777,-59.570,0
1594888783.220,-17.578,-849.121,-380.371,-59.082,0
1594888783.224,-30.762,-723.633,-328.125,-64.941,0
1594888783.221,-26.367,-740.234,-346.191,-60.547,0
1594888783.225,-16.602,-631.836,-278.809,-59.082,0
1594888783.229,-18.066,-813.965,-409.180,-55.176,0
1594888783.233,-25.391,-1000.000,-487.305,-53.223,0
1594888783.237,-22.949,-834.473,-346.191,-55.664,0
1594888783.241,-13.672,-757.324,-323.242,-52.734,0
1594888783.245,-20.508,-781.250,-290.527,-52.246,0
1594888783.248,-34.180,-930.176,-489.746,-52.734,0
1594888783.252,-41.992,-965.820,-527.344,-58.594,0
1594888783.256,-33.691,-612.305,-218.750,-68.848,0
1594888783.260,-23.926,-413.574,-210.449,-64.453,0
1594888783.264,-28.809,-526.367,-328.125,-64.453,0
1594888783.275,-28.809,-778.320,-380.859,-64.941,0
1594888783.279,-17.578,-839.355,-297.363,-62.500,0
1594888783.283,-5.859,-616.699,-204.102,-64.941,0
1594888783.287,-11.230,-375.977,-228.027,-67.871,0
1594888783.291,-19.043,-608.887,-332.031,-68.848,0
1594888783.295,-14.648,-987.793,-533.203,-61.035,0
1594888783.299,-11.230,-892.090,-465.332,-54.199,0
1594888783.302,-20.508,-441.406,-186.523,-57.617,0
1594888783.306,-31.738,-625.977,-345.703,-58.594,0
1594888783.310,-38.086,-1000.000,-484.375,-50.293,0
1594888783.314,-25.391,-978.027,-496.094,-35.645,0
1594888783.318,-17.578,-918.457,-416.992,-36.621,0
1594888783.315,-26.367,-975.586,-482.910,-41.992,0
1594888783.319,-24.902,-942.383,-426.758,-39.551,0
1594888783.323,-21.484,-936.035,-397.461,-38.574,0
1594888783.327,-22.949,-864.258,-381.348,-37.109,0
1594888783.331,-27.832,-622.559,-290.039,-43.457,0
1594888783.335,-19.531,-829.590,-412.598,-50.781,0
1594888783.339,-13.184,-1000.000,-394.043,-46.875,0
1594888783.342,-11.230,-995.117,-475.586,-43.457,0
1594888783.346,-7.812,-947.754,-535.156,-43.457,0
1594888783.350,-20.996,-871.094,-396.484,-55.664,0
1594888783.354,-21.484,-766.113,-359.375,-63.965,0
1594888783.358,-16.113,-792.480,-378.418,-61.035,0
1594888783.370,-17.578,-968.262,-489.258,-51.758,0
1594888783.374,-19.043,-1000.000,-523.438,-50.293,0
1594888783.378,-20.508,-894.043,-416.992,-54.199,0
1594888783.382,-16.113,-591.309,-266.113,-50.781,0
1594888783.386,-16.113,-618.652,-249.023,-55.664,0
1594888783.390,-21.484,-924.316,-554.688,-44.434,0
1594888783.394,-21.973,-981.934,-608.887,-29.785,0
1594888783.397,-13.672,-647.461,-239.746,-29.297,0
1594888783.401,-14.648,-417.969,-229.004,-32.227,0
1594888783.405,-18.555,-673.340,-375.488,-34.668,0
1594888783.409,-24.414,-831.543,-383.789,-31.250,0
1594888783.413,-30.273,-602.051,-268.066,-32.715,0
1594888783.408,-29.297,-467.773,-248.047,-39.551,0
1594888783.412,-31.738,-565.430,-278.320,-50.781,0
1594888783.416,-37.109,-917.969,-497.070,-60.059,0
1594888783.420,-33.691,-919.434,-458.008,-51.758,0
1594888783.424,-26.367,-682.129,-289.062,-46.387,0
1594888783.428,-28.809,-845.703,-405.762,-48.828,0
1594888783.432,-30.273,-992.188,-417.480,-50.293,0
1594888783.435,-18.555,-1000.000,-585.449,-43.457,0
1594888783.439,-11.230,-922.363,-530.762,-40.527,0
1594888783.443,-13.184,-709.473,-283.203,-42.969,0
1594888783.447,-24.414,-668.945,-307.129,-46.875,0
1594888783.451,-33.203,-810.059,-366.699,-51.758,0
1594888783.463,-24.414,-948.242,-398.926,-50.293,0
1594888783.467,-26.855,-881.348,-307.617,-53.223,0
1594888783.471,-34.668,-897.461,-336.426,-54.688,0
1594888783.475,-36.621,-860.352,-375.488,-42.969,0
1594888783.479,-27.832,-869.141,-347.168,-32.715,0
1594888783.483,-19.531,-988.770,-572.266,-33.691,0
1594888783.487,-22.949,-1000.000,-593.750,-37.109,0
1594888783.490,-23.438,-930.664,-377.930,-31.250,0
1594888783.494,-19.043,-724.121,-309.082,-31.738,0
1594888783.498,-16.602,-784.180,-370.117,-34.668,0
1594888783.502,-13.672,-1000.000,-466.309,-30.762,0
1594888783.506,-16.113,-805.176,-319.824,-36.133,0
1594888783.502,-15.625,-569.336,-282.227,-40.039,0
1594888783.506,-13.184,-485.352,-256.348,-45.898,0
1594888783.510,-13.672,-768.555,-383.301,-45.898,0
1594888783.514,-18.066,-908.203,-417.480,-33.203,0
1594888783.518,-19.531,-787.109,-348.633,-27.344,0
1594888783.522,-12.207,-935.059,-418.457,-27.344,0
1594888783.526,-8.301,-937.988,-353.027,-29.297,0
1594888783.529,-3.906,-955.078,-530.762,-27.832,0
1594888783.533,-7.324,-975.098,-585.938,-28.320,0
1594888783.537,-11.230,-666.504,-245.605,-33.691,0
1594888783.541,-6.348,-366.699,-186.523,-36.621,0
1594888783.545,-12.695,-471.680,-287.598,-43.457,0
1594888783.557,-30.762,-822.266,-433.105,-42.969,0
1594888783.561,-30.273,-1000.000,-421.387,-36.133,0
1594888783.565,-24.902,-862.305,-349.609,-42.480,0
1594888783.569,-24.902,-616.211,-302.734,-41.992,0
1594888783.573,-20.020,-727.539,-374.023,-37.109,0
1594888783.577,-20.020,-1000.000,-614.746,-39.062,0
1594888783.581,-12.207,-928.711,-479.492,-38.574,0
1594888783.584,-9.277,-686.035,-256.836,-45.898,0
1594888783.588,-21.973,-609.863,-308.594,-56.641,0
1594888783.592,-25.391,-755.371,-375.977,-59.570,0
1594888783.596,-17.090,-988.770,-503.418,-53.711,0
1594888783.600,-19.043,-867.188,-354.004,-55.664,0
1594888783.597,-26.367,-706.055,-304.688,-64.941,0
1594888783.601,-23.438,-672.852,-315.918,-61.035,0
1594888783.605,-21.484,-857.422,-428.711,-53.223,0
1594888783.609,-20.508,-884.766,-443.848,-53.223,0
1594888783.613,-16.602,-669.922,-289.062,-56.641,0
1594888783.617,-15.625,-902.832,-427.734,-54.199,0
1594888783.621,-11.719,-1000.000,-396.973,-53.223,0
1594888783.624,-9.277,-1000.000,-499.512,-51.270,0
1594888783.628,2.441,-888.184,-511.719,-45.410,0
1594888783.632,-3.906,-710.938,-309.082,-46.387,0
1594888783.636,-17.578,-658.203,-305.176,-51.758,0
1594888783.640,-8.789,-641.602,-325.684,-56.641,0
1594888783.652,-6.348,-766.113,-358.398,-56.641,0
1594888783.656,-13.672,-879.883,-395.996,-58.105,0
1594888783.660,-26.367,-1000.000,-450.684,-63.477,0
1594888783.664,-24.414,-875.000,-338.379,-63.965,0
1594888783.668,-14.648,-756.348,-257.812,-63.965,0
1594888783.672,-26.855,-947.754,-565.918,-71.289,0
1594888783.676,-30.273,-1000.000,-698.730,-74.219,0
1594888783.679,-15.137,-831.543,-357.422,-71.289,0
1594888783.683,-10.742,-551.758,-219.238,-70.312,0
1594888783.687,-10.742,-723.633,-375.977,-70.801,0
1594888783.691,-13.184,-971.680,-527.344,-70.801,0
1594888783.695,-18.555,-835.449,-400.391,-77.637,0
1594888783.690,-15.625,-594.238,-267.578,-73.242,0
1594888783.694,-14.648,-467.773,-229.004,-74.219,0
1594888783.698,-9.766,-761.230,-384.277,-73.242,0
1594888783.702,-11.719,-966.797,-431.152,-77.148,0
1594888783.706,-16.113,-945.312,-370.605,-84.961,0
1594888783.710,-12.695,-999.512,-452.637,-85.938,0
1594888783.714,-16.113,-989.258,-429.688,-89.844,0
1594888783.717,-16.602,-1000.000,-548.828,-87.402,0
1594888783.721,-6.348,-982.422,-576.660,-83.008,0
1594888783.725,-1.465,-544.434,-208.008,-90.820,0
1594888783.729,-11.719,-297.363,-211.426,-97.656,0
1594888783.733,-22.949,-494.141,-333.496,-100.098,0
1594888783.744,-20.508,-566.895,-281.250,-95.703,0
1594888783.748,-11.230,-679.199,-268.066,-85.938,2
1594888783.752,-16.113,-688.477,-293.945,-75.684,0
1594888783.756,-29.297,-544.434,-290.039,-67.383,0
1594888783.760,-27.344,-687.988,-325.195,-64.453,0
1594888783.764,-23.438,-960.938,-528.809,-62.500,0
1594888783.768,-31.250,-887.207,-518.066,-65.918,0
1594888783.771,-33.203,-865.723,-371.094,-69.824,0
1594888783.775,-41.016,-797.852,-349.609,-79.590,0
1594888783.779,-35.156,-791.992,-414.062,-82.031,0
1594888783.783,-22.461,-948.730,-458.496,-69.824,0
1594888783.787,-27.344,-857.422,-336.426,-68.848,0
1594888783.783,-35.645,-881.836,-375.488,-73.242,0
1594888783.787,-30.762,-776.855,-319.824,-70.312,0
1594888783.791,-21.484,-858.398,-352.051,-66.406,0
1594888783.795,-23.926,-928.223,-389.648,-69.824,0
1594888783.799,-29.297,-892.090,-377.441,-69.336,0
1594888783.803,-28.809,-977.051,-399.414,-69.824,0
1594888783.807,-19.043,-950.195,-331.055,-74.707,0
1594888783.810,-10.742,-1000.000,-542.480,-70.801,0
1594888783.814,-14.648,-879.395,-528.809,-70.801,0
1594888783.818,-15.625,-673.340,-297.852,-78.125,0
1594888783.822,-7.324,-758.789,-274.902,-76.660,0
1594888783.826,-7.324,-693.359,-290.039,-80.566,0
1594888783.838,-9.766,-837.402,-456.543,-81.543,0
1594888783.842,-14.160,-930.176,-370.605,-79.590,0
1594888783.846,-17.090,-738.770,-280.762,-81.543,0
1594888783.850,-16.602,-541.992,-291.504,-85.449,0
1594888783.854,-25.391,-574.707,-265.625,-87.402,0
1594888783.858,-30.273,-963.379,-574.219,-81.543,0
1594888783.862,-18.066,-875.000,-579.590,-76.172,0
1594888783.865,-10.254,-642.578,-278.809,-83.984,0
1594888783.869,-18.555,-540.039,-230.469,-85.449,0
1594888783.873,-21.484,-657.227,-339.844,-79.102,0
1594888783.877,-13.672,-843.262,-416.504,-72.266,0
1594888783.881,-7.324,-520.996,-219.238,-66.895,0
1594888783.879,-8.789,-569.336,-308.594,-59.570,0
1594888783.883,-17.578,-896.484,-390.137,-59.570,0
1594888783.887,-21.973,-1000.000,-512.207,-63.477,0
1594888783.891,-17.578,-873.535,-485.352,-64.453,0
1594888783.895,-16.602,-633.301,-318.359,-52.734,0
1594888783.899,-21.484,-873.535,-466.797,-49.805,0
1594888783.903,-18.555,-1000.000,-395.996,-62.988,0
1594888783.906,-9.277,-993.164,-488.281,-60.547,0
1594888783.910,-6.836,-888.672,-479.492,-60.059,0
1594888783.914,-7.812,-697.754,-308.105,-60.547,0
1594888783.918,-13.672,-768.066,-371.582,-55.176,0
1594888783.922,-16.113,-876.465,-354.492,-58.594,0
1594888783.932,-9.277,-793.945,-313.965,-61.523,0
1594888783.936,-12.207,-766.602,-316.406,-64.453,0
1594888783.940,-24.902,-846.191,-376.953,-63.477,0
1594888783.944,-30.762,-780.273,-399.902,-63.477,0
1594888783.948,-23.438,-818.848,-304.199,-66.895,0
1594888783.952,-22.461,-927.246,-491.211,-70.312,0
1594888783.956,-20.996,-972.656,-604.980,-68.848,0
1594888783.959,-23.438,-856.445,-332.520,-68.359,0
1594888783.963,-22.949,-675.781,-286.621,-68.848,0
1594888783.967,-13.184,-640.625,-299.805,-67.383,0
1594888783.971,-18.555,-705.078,-327.148,-72.754,0
1594888783.975,-29.297,-599.609,-291.992,-72.754,0
1594888783.971,-23.438,-643.555,-313.477,-67.383,0
1594888783.975,-18.066,-490.723,-236.816,-61.035,0
1594888783.979,-18.066,-687.500,-384.766,-52.246,0
1594888783.983,-22.949,-883.789,-446.289,-54.199,0
1594888783.987,-28.320,-714.355,-327.148,-51.270,0
1594888783.991,-23.438,-904.785,-397.949,-41.016,0
1594888783.995,-20.996,-1000.000,-364.746,-36.621,0
1594888783.998,-22.461,-994.629,-549.805,-31.250,0
1594888784.002,-16.113,-990.723,-619.141,-33.203,0
1594888784.006,-3.906,-715.820,-282.227,-34.668,0
1594888784.010,0.000,-539.551,-274.902,-29.785,0
1594888784.014,-11.230,-648.926,-372.559,-27.832,0
1594888784.025,-30.762,-819.824,-384.277,-27.832,0
1594888784.029,-39.062,-1000.000,-412.598,-24.414,0
1594888784.033,-34.180,-845.703,-324.707,-22.461,0
1594888784.037,-31.250,-604.004,-270.508,-22.461,0
1594888784.041,-34.180,-774.902,-334.473,-24.902,0
1594888784.045,-20.020,-1000.000,-562.500,-18.555,0
1594888784.049,-12.207,-864.258,-496.094,-15.625,0
1594888784.052,-25.391,-450.684,-193.359,-29.297,0
1594888784.056,-30.762,-439.941,-293.945,-35.645,0
1594888784.060,-21.484,-741.211,-393.555,-36.621,0
1594888784.064,-13.184,-843.262,-358.398,-42.480,0
1594888784.068,-15.625,-463.867,-211.914,-56.152,0
1594888784.066,-18.066,-526.367,-345.215,-52.246,0
1594888784.070,-14.160,-631.348,-291.504,-45.898,0
1594888784.074,-8.789,-686.523,-286.133,-49.316,0
1594888784.078,-14.160,-727.051,-336.914,-55.176,0
1594888784.082,-33.203,-587.402,-270.508,-58.105,0
1594888784.086,-37.598,-890.625,-443.848,-49.805,0
1594888784.090,-32.715,-1000.000,-428.711,-50.293,0
1594888784.093,-32.715,-986.328,-496.094,-50.293,0
1594888784.097,-26.855,-959.473,-559.082,-38.574,0
1594888784.101,-27.344,-809.082,-362.793,-44.434,0
1594888784.105,-26.855,-677.246,-311.035,-45.898,0
1594888784.109,-9.277,-747.070,-341.309,-40.039,0
1594888784.120,-8.301,-938.965,-417.969,-45.410,0
1594888784.124,-17.578,-1000.000,-460.449,-43.945,0
1594888784.128,-19.043,-937.988,-417.480,-46.875,0
1594888784.132,-28.809,-695.801,-277.832,-51.758,0
1594888784.136,-34.668,-697.754,-259.277,-53.223,0
1594888784.140,-27.344,-987.305,-620.605,-56.641,0
1594888784.144,-31.250,-974.121,-612.793,-56.641,0
1594888784.147,-27.344,-621.094,-191.895,-52.734,0
1594888784.151,-26.367,-344.727,-204.590,-50.293,0
1594888784.155,-37.598,-659.180,-391.113,-50.293,0
1594888784.159,-33.691,-923.340,-464.355,-44.922,0
1594888784.163,-28.320,-693.359,-288.086,-43.457,0
1594888784.158,-23.438,-605.469,-258.789,-46.387,0
1594888784.162,-19.043,-604.492,-281.738,-48.828,0
1594888784.166,-16.602,-817.383,-431.152,-41.504,0
1594888784.170,-18.066,-987.793,-456.055,-35.156,0
1594888784.174,-21.973,-700.195,-252.930,-43.945,0
1594888784.178,-24.414,-780.762,-394.531,-46.387,0
1594888784.182,-33.691,-1000.000,-503.418,-44.434,0
1594888784.185,-27.344,-999.023,-603.027,-38.574,0
1594888784.189,-11.719,-979.980,-540.039,-15.137,0
1594888784.193,-16.602,-596.680,-205.078,-13.672,0
1594888784.197,-21.484,-442.871,-253.418,-30.273,0
1594888784.201,-22.949,-780.762,-384.766,-38.574,0
1594888784.213,-20.996,-911.133,-360.840,-43.457,0
1594888784.217,-18.066,-881.836,-352.051,-52.246,0
1594888784.221,-20.996,-865.723,-384.277,-53.711,0
1594888784.225,-20.996,-683.594,-345.703,-48.828,0
1594888784.229,-14.160,-774.414,-354.980,-46.875,0
1594888784.233,-3.906,-998.535,-596.680,-40.039,0
1594888784.237,-12.207,-1000.000,-620.117,-48.340,0
1594888784.240,-31.250,-889.160,-358.887,-57.617,0
1594888784.244,-25.879,-610.840,-271.484,-58.594,0
1594888784.248,-20.020,-687.988,-320.312,-59.570,0
1594888784.252,-29.785,-955.566,-406.250,-54.199,0
1594888784.256,-29.785,-757.324,-299.316,-60.059,0
1594888784.252,-24.414,-639.160,-298.340,-63.965,0
1594888784.256,-17.090,-670.410,-292.480,-64.453,0
1594888784.260,-18.066,-785.645,-391.602,-65.918,0
1594888784.264,-28.320,-955.566,-471.680,-65.430,0
1594888784.268,-29.297,-810.547,-360.352,-69.824,0
1594888784.272,-20.508,-903.809,-416.504,-66.895,0
1594888784.276,-6.836,-973.633,-338.867,-63.477,0
1594888784.279,-5.371,-959.473,-495.605,-63.965,0
1594888784.283,-8.789,-1000.000,-602.539,-58.105,0
1594888784.287,-7.324,-883.301,-349.609,-62.012,0
1594888784.291,-0.488,-614.258,-246.094,-63.965,0
1594888784.295,5.371,-691.406,-333.008,-61.035,0
1594888784.307,-3.418,-957.520,-496.094,-66.406,0
1594888784.311,-14.648,-969.238,-407.715,-61.035,0
1594888784.315,-18.555,-841.797,-329.102,-58.105,0
1594888784.319,-22.461,-643.066,-299.316,-55.176,0
1594888784.323,-25.391,-671.387,-283.691,-54.688,0
1594888784.327,-26.855,-991.699,-617.676,-58.594,0
1594888784.331,-24.414,-882.324,-521.973,-61.035,0
1594888784.334,-17.578,-548.828,-203.125,-69.824,0
1594888784.338,-17.090,-515.625,-291.504,-68.848,0
1594888784.342,-21.484,-739.258,-350.098,-64.453,0
1594888784.346,-21.973,-852.051,-389.648,-56.152,0
1594888784.350,-23.926,-680.176,-314.941,-56.152,0
1594888784.347,-27.832,-728.516,-345.703,-58.594,0
1594888784.351,-25.879,-791.016,-355.469,-54.688,0
1594888784.355,-25.879,-927.246,-475.098,-59.082,0
1594888784.359,-28.809,-912.109,-478.027,-62.500,0
1594888784.363,-28.320,-688.965,-275.879,-63.477,0
1594888784.367,-33.691,-883.789,-422.852,-62.988,0
1594888784.371,-32.715,-988.281,-392.578,-67.383,0
1594888784.374,-23.438,-957.520,-412.598,-63.965,0
1594888784.378,-26.367,-898.438,-468.262,-61.523,0
1594888784.382,-31.250,-681.641,-338.379,-65.430,0
1594888784.386,-29.785,-797.852,-369.629,-64.453,0
1594888784.390,-18.555,-767.090,-325.195,-63.477,0
1594888784.400,-11.719,-818.848,-360.840,-63.477,0
1594888784.404,-18.555,-1000.000,-492.188,-62.988,0
1594888784.408,-13.672,-1000.000,-519.043,-57.617,0
1594888784.412,-0.977,-940.918,-361.328,-40.527,0
1594888784.416,4.395,-843.750,-280.273,-28.320,0
1594888784.420,-3.418,-963.867,-571.777,-24.902,0
1594888784.424,-16.602,-1000.000,-667.480,-14.648,0
1594888784.427,-19.043,-819.824,-331.543,-16.113,0
1594888784.431,-8.301,-537.109,-240.723,-23.926,0
1594888784.435,-8.301,-683.594,-399.414,-23.926,0
1594888784.439,-23.926,-957.031,-488.770,-28.809,0
1594888784.443,-24.414,-770.508,-330.566,-27.344,0
1594888784.440,-16.602,-511.719,-235.840,-15.625,0
1594888784.444,-21.484,-349.609,-171.875,-19.043,0
1594888784.448,-27.832,-683.594,-368.164,-18.066,0
1594888784.452,-29.785,-895.996,-423.828,-10.254,0
1594888784.456,-16.113,-662.109,-287.598,-8.789,0
1594888784.460,-13.672,-767.578,-377.441,-10.742,0
1594888784.464,-20.996,-921.875,-370.117,-18.066,0
1594888784.467,-24.414,-991.211,-546.387,-15.625,0
1594888784.471,-17.578,-983.398,-635.742,-20.508,0
1594888784.475,-2.441,-787.598,-331.543,-28.809,0
1594888784.479,-5.859,-608.398,-266.113,-21.973,0
1594888784.483,-15.625,-601.562,-305.176,-24.414,0
1594888784.494,-26.855,-742.188,-320.801,-27.832,0
1594888784.498,-23.926,-802.246,-280.273,-23.438,0
1594888784.502,-19.043,-864.258,-347.656,-21.973,0
1594888784.506,-32.715,-822.266,-367.188,-25.391,0
1594888784.510,-36.133,-757.812,-310.547,-28.809,0
1594888784.514,-25.879,-981.934,-557.129,-22.461,0
1594888784.518,-27.344,-873.047,-533.203,-29.785,0
1594888784.521,-36.621,-509.766,-252.441,-41.504,0
1594888784.525,-34.180,-694.824,-339.844,-32.715,0
1594888784.529,-29.297,-970.703,-418.457,-19.043,0
1594888784.533,-26.367,-942.383,-413.574,-17.090,0
1594888784.537,-21.484,-600.586,-236.816,-22.461,0
1594888784.533,-21.973,-520.508,-248.535,-13.672,0
1594888784.537,-15.137,-537.109,-273.438,-13.184,0
1594888784.541,-6.348,-702.148,-354.492,-28.809,0
1594888784.545,-11.230,-929.199,-391.602,-39.062,0
1594888784.549,-19.531,-880.371,-375.488,-45.410,0
1594888784.553,-22.949,-958.008,-449.707,-45.410,0
1594888784.557,-15.625,-918.457,-313.477,-40.039,0
1594888784.560,-10.742,-967.773,-450.195,-39.062,0
1594888784.564,-18.066,-961.426,-542.480,-38.574,0
1594888784.568,-22.461,-783.691,-289.551,-44.922,0
1594888784.572,-22.461,-679.199,-256.348,-43.945,0
1594888784.576,-20.996,-877.930,-420.898,-38.086,0
1594888784.588,-27.832,-1000.000,-484.375,-44.434,0
1594888784.592,-34.668,-973.633,-448.242,-55.664,0
1594888784.596,-23.438,-938.477,-429.199,-58.105,0
1594888784.600,-18.555,-708.008,-325.684,-67.383,0
1594888784.604,-23.438,-756.348,-323.242,-70.312,0
1594888784.608,-35.156,-1000.000,-604.004,-61.523,0
1594888784.612,-34.668,-886.230,-538.086,-64.941,0
1594888784.615,-16.113,-458.496,-152.832,-66.406,0
1594888784.619,-12.695,-365.723,-172.852,-66.406,0
1594888784.623,-22.949,-702.148,-365.234,-64.941,2
1594888784.627,-22.949,-899.902,-413.574,-57.129,0
1594888784.631,-21.973,-546.875,-212.402,-61.523,0
1594888784.629,-16.602,-442.871,-250.488,-59.082,0
1594888784.633,-14.160,-824.219,-408.203,-57.129,0
1594888784.637,-20.020,-1000.000,-590.820,-53.711,0
1594888784.641,-13.672,-846.191,-481.934,-53.711,0
1594888784.645,-15.137,-656.250,-298.340,-59.082,0
1594888784.649,-22.949,-928.223,-474.609,-52.734,0
1594888784.653,-22.949,-1000.000,-427.246,-46.875,0
1594888784.656,-20.508,-1000.000,-458.496,-41.504,0
1594888784.660,-19.531,-826.172,-416.504,-37.109,0
1594888784.664,-20.508,-549.316,-239.746,-41.992,0
1594888784.668,-15.137,-571.777,-297.363,-35.645,0
1594888784.672,-10.254,-639.160,-342.285,-26.367,0
1594888784.682,-21.484,-799.316,-339.355,-32.227,0
1594888784.686,-25.879,-930.176,-373.535,-41.016,0
1594888784.690,-23.926,-1000.000,-447.754,-42.480,0
1594888784.694,-26.367,-754.395,-340.820,-41.992,0
1594888784.698,-20.996,-640.625,-236.816,-46.387,0
1594888784.702,-16.113,-919.922,-512.695,-42.969,0
1594888784.706,-20.020,-1000.000,-614.746,-38.574,0
1594888784.709,-23.926,-772.949,-310.547,-41.016,0
1594888784.713,-17.578,-580.566,-263.184,-52.734,0
1594888784.717,-12.207,-784.180,-378.418,-65.918,0
1594888784.721,-23.926,-949.707,-448.242,-59.082,0
1594888784.725,-39.551,-833.008,-386.719,-60.059,0
1594888784.721,-33.203,-773.438,-364.746,-68.848,0
1594888784.725,-24.902,-520.996,-210.449,-68.848,0
1594888784.729,-27.344,-607.422,-290.527,-70.801,0
1594888784.733,-34.668,-752.441,-359.375,-74.219,0
1594888784.737,-34.180,-401.367,-182.617,-72.754,0
1594888784.741,-24.902,-413.086,-200.195,-65.430,0
1594888784.745,-20.020,-515.625,-230.957,-60.059,0
1594888784.748,-16.113,-811.035,-443.848,-59.570,0
1594888784.752,-13.672,-997.559,-524.414,-58.105,0
1594888784.756,-11.230,-453.125,-140.137,-54.199,0
1594888784.760,-2.441,-96.191,-33.203,-49.316,0
1594888784.764,-8.789,-578.613,-321.289,-54.688,0
1594888784.775,-14.160,-822.754,-379.395,-40.527,0
1594888784.779,-8.789,-759.766,-298.828,-25.391,0
1594888784.783,-11.719,-666.504,-261.230,-32.715,0
1594888784.787,-11.719,-367.188,-209.473,-39.062,0
1594888784.791,-14.648,-610.352,-321.289,-46.875,0
1594888784.795,-13.672,-1000.000,-563.965,-54.688,0
1594888784.799,-11.230,-789.551,-381.348,-58.594,0
1594888784.802,-17.090,-476.562,-170.898,-62.988,0
1594888784.806,-20.508,-518.555,-289.062,-59.082,0
1594888784.810,-25.879,-712.891,-374.512,-48.828,0
1594888784.814,-20.996,-915.039,-371.094,-32.227,0
1594888784.818,-18.555,-593.750,-224.609,-13.672,0
1594888784.816,-26.367,-586.426,-323.242,-4.883,0
1594888784.820,-30.273,-777.344,-305.664,1.953,0
1594888784.824,-22.949,-888.672,-461.914,2.930,0
1594888784.828,-18.555,-959.473,-539.551,1.953,0
1594888784.832,-20.996,-705.566,-305.664,-9.766,0
1594888784.836,-20.020,-795.898,-385.742,-21.973,0
1594888784.840,-20.020,-975.098,-380.859,-26.855,0
1594888784.843,-16.113,-999.512,-508.789,-38.574,0
1594888784.847,-20.020,-926.758,-518.555,-54.688,0
1594888784.851,-26.367,-745.117,-311.523,-67.871,0
1594888784.855,-23.926,-476.074,-224.609,-74.219,0
1594888784.859,-13.672,-414.551,-237.305,-71.289,0
1594888784.870,-13.672,-784.180,-347.656,-65.430,0
1594888784.874,-19.531,-976.562,-395.508,-72.754,0
1594888784.878,-12.695,-923.340,-390.625,-68.359,0
1594888784.882,1.953,-693.848,-287.109,-52.734,0
1594888784.886,0.488,-698.730,-286.133,-57.617,0
1594888784.890,-10.254,-968.750,-594.238,-60.059,0
1594888784.894,-13.672,-1000.000,-638.672,-51.758,0
1594888784.897,-16.113,-656.738,-257.812,-54.199,0
1594888784.901,-19.043,-608.398,-285.645,-63.965,0
1594888784.905,-19.531,-955.566,-506.836,-73.730,0
1594888784.909,-16.113,-1000.000,-509.277,-70.801,0
1594888784.913,-19.043,-931.152,-361.328,-72.754,0
1594888784.909,-26.367,-814.453,-325.684,-74.219,0
1594888784.913,-35.645,-718.262,-299.316,-75.684,0
1594888784.917,-42.969,-883.789,-463.379,-83.984,0
1594888784.921,-37.109,-991.699,-524.414,-82.031,0
1594888784.925,-29.297,-982.910,-429.688,-74.707,0
1594888784.929,-24.902,-979.492,-430.176,-73.242,0
1594888784.933,-29.785,-944.336,-375.000,-71.777,0
1594888784.936,-30.762,-1000.000,-547.363,-63.965,0
1594888784.940,-16.602,-973.633,-579.590,-53.223,0
1594888784.944,-20.020,-770.996,-292.480,-56.152,0
1594888784.948,-21.973,-715.332,-341.309,-58.594,0
1594888784.952,-18.066,-847.656,-406.250,-62.012,0
1594888784.963,-15.625,-929.688,-368.652,-69.336,0
1594888784.967,-14.160,-953.125,-381.836,-70.801,0
1594888784.971,-13.184,-944.824,-397.461,-64.941,0
1594888784.975,-9.766,-807.617,-378.418,-61.035,0
1594888784.979,-8.301,-748.047,-362.305,-56.641,0
1594888784.983,-10.254,-925.781,-515.625,-51.758,0
1594888784.987,-16.602,-905.273,-438.477,-58.594,0
1594888784.990,-25.879,-540.527,-175.781,-63.477,0
1594888784.994,-24.902,-229.980,-129.395,-59.570,0
1594888784.998,-17.578,-301.758,-189.941,-57.617,0
1594888785.002,-15.137,-691.895,-324.219,-52.246,0
1594888785.006,-16.113,-595.215,-270.020,-54.199,0
1594888785.002,-19.531,-358.398,-194.336,-62.012,0
1594888785.006,-20.996,-221.680,-137.695,-66.895,0
1594888785.010,-20.020,-522.461,-317.383,-70.312,0
1594888785.014,-19.531,-877.930,-439.453,-65.918,0
1594888785.018,-27.832,-873.535,-386.719,-65.430,0
1594888785.022,-27.344,-976.074,-410.645,-68.359,0
1594888785.026,-20.996,-880.371,-269.043,-66.406,0
1594888785.029,-27.344,-902.832,-397.949,-63.477,0
1594888785.033,-31.738,-923.828,-491.211,-59.082,0
1594888785.037,-32.227,-841.309,-322.266,-62.012,0
1594888785.041,-32.715,-731.934,-273.926,-55.176,0
1594888785.045,-30.762,-481.934,-246.582,-48.828,0
1594888785.056,-33.691,-787.598,-427.734,-49.316,0
1594888785.060,-31.250,-1000.000,-414.062,-51.758,0
1594888785.064,-26.855,-734.863,-286.133,-62.012,0
1594888785.068,-30.273,-525.391,-256.836,-64.453,0
1594888785.072,-29.785,-666.016,-318.359,-66.895,0
1594888785.076,-32.715,-993.164,-585.449,-68.359,0
1594888785.080,-35.645,-893.066,-482.910,-74.219,0
1594888785.083,-29.785,-586.426,-250.000,-73.242,0
1594888785.087,-28.320,-548.828,-303.711,-57.129,0
1594888785.091,-29.785,-815.918,-414.551,-48.828,0
1594888785.095,-30.762,-934.082,-432.617,-55.664,0
1594888785.099,-28.809,-640.625,-271.973,-57.617,0
1594888785.115,-24.414,-763.672,-376.953,-55.176,0
1594888785.119,-23.926,-950.684,-388.672,-53.223,0
1594888785.123,-18.066,-964.355,-471.680,-47.363,0
1594888785.127,-13.672,-866.699,-473.145,-41.016,0
1594888785.131,-14.648,-708.984,-295.898,-29.297,0
1594888785.135,-22.461,-970.215,-480.469,-28.320,0
1594888785.139,-24.902,-943.848,-393.066,-39.551,0
1594888785.142,-19.531,-924.805,-393.066,-37.598,0
1594888785.146,-19.043,-858.398,-445.312,-30.273,0
1594888785.150,-24.414,-593.750,-299.805,-43.945,0
1594888785.154,-24.414,-645.996,-331.543,-55.664,0
1594888785.158,-9.277,-679.688,-331.543,-49.316,0
1594888785.150,-7.812,-788.574,-362.793,-51.270,0
1594888785.154,-13.184,-946.777,-409.668,-48.828,0
1594888785.158,-13.672,-946.289,-405.762,-42.969,0
1594888785.162,-18.555,-828.125,-306.152,-46.387,0
1594888785.166,-16.113,-740.234,-314.453,-41.504,0
1594888785.170,-17.090,-913.086,-474.121,-40.527,0
1594888785.174,-22.949,-917.480,-401.855,-49.805,0
1594888785.177,-23.926,-745.605,-286.133,-50.781,0
1594888785.181,-20.020,-641.113,-277.832,-51.270,0
1594888785.185,-14.648,-702.148,-311.035,-49.805,0
1594888785.189,-20.996,-1000.000,-642.090,-41.504,0
1594888785.193,-25.391,-871.582,-542.969,-43.945,0
1594888785.190,-15.137,-606.934,-190.918,-48.340,0
1594888785.194,-18.066,-409.180,-171.875,-47.363,0
1594888785.198,-29.785,-620.117,-348.145,-40.039,0
1594888785.202,-26.855,-858.887,-409.668,-31.738,0
1594888785.206,-22.461,-662.598,-278.320,-36.133,0
1594888785.210,-15.137,-906.738,-431.152,-29.297,0
1594888785.214,-23.438,-1000.000,-437.500,-23.438,0
1594888785.217,-33.203,-989.746,-563.965,-20.508,0
1594888785.221,-22.461,-995.605,-606.934,-14.648,0
1594888785.225,-16.602,-675.781,-260.742,-20.508,0
1594888785.229,-26.367,-429.688,-201.660,-23.438,0
1594888785.233,-29.297,-653.809,-340.332,-14.160,0
1594888785.244,-19.043,-913.574,-388.184,-10.742,0
1594888785.248,-17.090,-906.250,-318.848,-26.855,0
1594888785.252,-26.367,-664.062,-261.719,-35.645,0
1594888785.256,-22.949,-513.672,-285.645,-31.738,0
1594888785.260,-18.066,-688.965,-315.430,-31.738,0
1594888785.264,-16.113,-970.703,-525.879,-26.855,0
1594888785.268,-16.113,-889.160,-507.324,-25.391,0
1594888785.271,-22.949,-498.535,-232.910,-33.203,0
1594888785.275,-24.902,-422.363,-272.461,-36.621,0
1594888785.279,-18.555,-708.008,-357.910,-31.250,0
1594888785.283,-13.672,-847.656,-354.980,-28.809,0
1594888785.287,-15.625,-658.203,-295.898,-24.902,0
1594888785.284,-15.137,-645.508,-324.219,-24.414,0
1594888785.288,-13.672,-561.523,-261.230,-27.832,0
1594888785.292,-15.625,-657.715,-309.570,-32.227,0
1594888785.296,-16.113,-810.547,-384.766,-33.203,0
1594888785.300,-24.414,-782.715,-386.230,-29.785,0
1594888785.304,-28.320,-926.270,-423.340,-35.645,0
1594888785.308,-21.973,-928.711,-303.711,-42.480,0
1594888785.311,-23.438,-990.234,-508.301,-39.551,0
1594888785.315,-33.691,-973.145,-583.008,-31.250,0
1594888785.319,-32.227,-761.230,-305.664,-31.250,0
1594888785.323,-25.391,-519.043,-234.863,-29.785,0
1594888785.327,-17.578,-653.809,-332.031,-20.996,0
1594888785.338,-14.648,-959.961,-482.910,-21.973,0
1594888785.342,-21.973,-1000.000,-420.410,-25.879,0
1594888785.346,-25.391,-728.516,-289.551,-22.461,0
1594888785.350,-21.484,-492.676,-320.312,-18.066,0
1594888785.354,-24.414,-619.141,-309.082,-18.555,0
1594888785.358,-25.879,-903.809,-555.664,-17.090,0
1594888785.362,-20.020,-903.809,-579.102,-18.066,0
1594888785.365,-19.043,-650.391,-259.277,-30.762,0
1594888785.369,-22.461,-606.934,-287.109,-33.203,0
1594888785.373,-26.855,-802.734,-400.879,-34.180,0
1594888785.377,-27.832,-896.484,-409.180,-43.945,0
1594888785.381,-20.996,-562.012,-240.723,-47.852,0
1594888785.377,-14.648,-480.957,-263.672,-40.039,0
1594888785.381,-23.926,-730.469,-351.562,-28.320,0
1594888785.385,-28.320,-987.305,-586.914,-16.113,0
1594888785.389,-27.344,-947.266,-533.203,-12.695,0
1594888785.393,-29.297,-712.891,-265.137,-25.391,0
1594888785.397,-27.832,-873.535,-437.500,-30.762,0
1594888785.401,-31.250,-1000.000,-410.156,-29.785,0
1594888785.404,-25.879,-991.699,-435.059,-28.320,0
1594888785.408,-15.137,-910.645,-456.543,-23.926,0
1594888785.412,-23.926,-655.762,-281.738,-32.227,0
1594888785.416,-29.297,-742.188,-348.633,-32.227,0
1594888785.420,-26.855,-849.609,-381.348,-31.250,0
1594888785.432,-25.391,-800.293,-312.012,-38.574,0
1594888785.436,-24.414,-865.723,-340.820,-45.898,0
1594888785.440,-23.926,-988.281,-456.543,-51.758,0
1594888785.444,-25.391,-760.742,-310.059,-61.523,0
1594888785.448,-16.602,-565.918,-208.008,-69.336,0
1594888785.452,-16.602,-858.398,-520.020,-64.453,0
1594888785.456,-26.855,-1000.000,-621.094,-63.477,0
1594888785.459,-24.902,-915.527,-381.348,-68.359,0
1594888785.463,-23.926,-629.883,-251.953,-74.219,0
1594888785.467,-27.344,-730.957,-356.445,-74.707,0
1594888785.471,-29.785,-967.285,-479.980,-72.754,0
1594888785.475,-28.809,-590.332,-247.559,-71.777,0
1594888785.471,-22.949,-510.254,-277.344,-68.359,0
1594888785.475,-16.113,-429.688,-200.684,-68.848,0
1594888785.479,-15.137,-554.199,-228.516,-74.707,0
1594888785.483,-13.672,-915.527,-422.852,-75.195,0
1594888785.487,-10.254,-768.066,-369.629,-68.848,0
1594888785.491,-6.348,-898.926,-418.457,-72.266,0
1594888785.495,-12.207,-1000.000,-396.484,-80.566,0
1594888785.498,-16.602,-996.094,-598.145,-78.125,0
1594888785.502,-10.254,-987.793,-608.398,-77.148,0
1594888785.506,-4.395,-788.086,-312.500,-85.938,0
1594888785.510,-4.395,-615.234,-294.434,-86.426,0
1594888785.514,-14.160,-602.051,-333.496,-82.520,0
1594888785.525,-25.879,-830.078,-452.637,-73.730,2
1594888785.529,-26.367,-974.609,-371.094,-69.336,0
1594888785.533,-24.414,-797.363,-285.156,-65.430,0
1594888785.537,-31.738,-591.797,-294.434,-61.035,0
1594888785.541,-35.156,-519.531,-261.719,-68.359,0
1594888785.545,-29.297,-832.031,-493.652,-70.801,0
1594888785.549,-32.227,-905.762,-530.273,-66.895,0
1594888785.552,-29.785,-634.766,-293.457,-72.754,0
1594888785.556,-23.438,-636.719,-327.637,-80.078,0
1594888785.560,-23.926,-783.203,-369.629,-79.102,0
1594888785.564,-19.043,-869.629,-349.609,-76.660,0
1594888785.568,-20.020,-875.977,-339.844,-75.684,0
1594888785.566,-28.809,-874.512,-350.586,-65.430,0
1594888785.570,-26.367,-873.535,-325.684,-64.941,0
1594888785.574,-19.043,-985.352,-470.215,-82.031,0
1594888785.578,-19.043,-955.566,-524.414,-89.844,0
1594888785.582,-14.648,-771.484,-331.543,-89.844,0
1594888785.586,-13.184,-881.348,-421.387,-84.473,0
1594888785.590,-18.555,-984.863,-379.395,-90.820,0
1594888785.593,-14.648,-951.172,-454.590,-96.680,0
1594888785.597,-15.625,-949.707,-550.293,-82.520,0
1594888785.601,-23.438,-865.723,-363.770,-76.660,0
1594888785.605,-14.648,-803.711,-342.773,-75.195,0
1594888785.609,-5.859,-681.152,-332.520,-72.266,0
1594888785.620,-18.555,-813.477,-384.277,-73.730,0
1594888785.624,-26.855,-974.609,-418.945,-69.336,0
1594888785.628,-20.020,-1000.000,-437.988,-63.965,0
1594888785.632,-12.207,-761.230,-297.363,-69.824,0
1594888785.636,-6.348,-555.664,-210.938,-71.289,0
1594888785.640,-13.184,-949.707,-638.672,-67.383,0
1594888785.644,-19.531,-1000.000,-716.797,-60.059,0
1594888785.647,-18.066,-807.617,-301.758,-62.500,0
1594888785.651,-16.113,-492.188,-218.262,-60.547,0
1594888785.655,-12.695,-563.477,-288.574,-49.805,0
1594888785.659,-15.137,-768.066,-326.660,-47.852,0
1594888785.663,-18.555,-599.121,-264.648,-46.387,0
1594888785.658,-8.301,-479.492,-237.305,-44.922,0
1594888785.662,-5.859,-466.309,-244.141,-54.199,0
1594888785.666,-15.625,-747.559,-410.645,-55.664,0
1594888785.670,-24.414,-941.406,-483.887,-51.758,0
1594888785.674,-31.738,-735.352,-290.527,-58.594,0
1594888785.678,-34.180,-795.898,-346.680,-55.664,0
1594888785.682,-35.645,-958.984,-402.344,-51.270,0
1594888785.685,-28.320,-1000.000,-502.930,-47.363,0
1594888785.689,-15.137,-978.027,-512.207,-53.711,0
1594888785.693,-17.578,-717.285,-259.277,-72.266,0
1594888785.697,-22.949,-588.379,-295.410,-81.055,0
1594888785.701,-24.414,-764.648,-384.766,-82.520,0
1594888785.713,-16.602,-869.629,-346.680,-86.914,0
1594888785.717,-3.418,-950.195,-360.840,-84.961,0
1594888785.721,-8.301,-907.227,-375.488,-85.449,0
1594888785.725,-17.090,-640.625,-301.758,-94.727,0
1594888785.729,-12.695,-664.551,-286.133,-96.680,0
1594888785.733,-9.277,-947.266,-492.188,-85.938,0
1594888785.737,-6.836,-939.453,-514.648,-83.984,0
1594888785.740,-9.277,-908.691,-388.184,-90.820,0
1594888785.744,-11.230,-847.168,-335.449,-90.820,0
1594888785.748,-3.418,-695.801,-271.973,-83.008,0
1594888785.752,-6.348,-817.871,-378.418,-79.102,0
1594888785.756,-23.926,-734.863,-348.145,-83.984,0
1594888785.752,-25.391,-651.367,-317.383,-77.637,0
1594888785.756,-18.066,-378.906,-189.941,-65.918,0
1594888785.760,-20.508,-570.312,-325.684,-62.988,0
1594888785.764,-25.391,-789.062,-396.973,-73.730,0
1594888785.768,-23.926,-571.777,-262.207,-83.496,0
1594888785.772,-17.090,-832.031,-369.629,-84.961,0
1594888785.776,-17.578,-1000.000,-361.328,-95.215,0
1594888785.779,-22.949,-990.723,-524.902,-105.469,0
1594888785.783,-21.973,-998.535,-589.844,-99.121,0
1594888785.787,-14.160,-838.867,-332.520,-91.797,0
1594888785.791,-16.113,-815.430,-333.496,-92.773,0
1594888785.795,-24.902,-976.074,-418.457,-109.375,0
1594888785.807,-35.645,-993.652,-508.301,-113.281,0
1594888785.811,-39.062,-967.773,-437.988,-114.258,0
1594888785.815,-33.691,-899.414,-317.383,-115.234,0
1594888785.819,-29.297,-528.320,-218.750,-110.352,0
1594888785.823,-28.809,-498.535,-247.559,-115.723,0
1594888785.827,-32.715,-985.352,-637.695,-113.770,0
1594888785.831,-29.297,-954.102,-553.711,-113.281,0
1594888785.834,-20.020,-602.051,-219.238,-117.188,0
1594888785.838,-14.648,-548.340,-310.547,-112.793,0
1594888785.842,-19.043,-798.340,-395.020,-102.539,0
1594888785.846,-23.926,-867.676,-383.789,-99.609,0
1594888785.850,-21.484,-522.461,-254.395,-100.098,0
1594888785.847,-26.855,-505.371,-277.832,-103.516,0
1594888785.851,-34.668,-849.609,-360.840,-100.586,0
1594888785.855,-30.762,-1000.000,-448.242,-86.426,0
1594888785.859,-25.391,-724.121,-267.578,-82.520,0
1594888785.863,-21.484,-401.855,-123.047,-87.402,0
1594888785.867,-30.762,-775.391,-394.531,-83.008,0
1594888785.871,-36.621,-933.594,-337.891,-78.613,0
1594888785.874,-29.785,-939.941,-416.504,-71.289,0
1594888785.878,-33.691,-874.023,-460.938,-65.918,0
1594888785.882,-29.785,-687.988,-333.008,-71.777,0
1594888785.886,-17.090,-722.168,-305.176,-76.172,0
1594888785.890,-13.184,-554.688,-225.098,-77.148,0
1594888785.900,-9.277,-676.758,-311.035,-75.684,0
1594888785.904,-8.301,-958.008,-369.629,-76.660,0
1594888785.908,-9.766,-939.453,-361.328,-75.195,0
1594888785.912,-1.953,-831.055,-341.309,-70.801,0
1594888785.916,0.977,-927.246,-370.117,-79.590,0
1594888785.920,-5.859,-1000.000,-571.777,-82.031,0
1594888785.924,-15.625,-1000.000,-646.973,-72.266,0
1594888785.927,-20.508,-760.742,-334.961,-86.426,0
1594888785.931,-14.160,-484.375,-235.840,-99.609,0
1594888785.935,-15.625,-616.699,-335.938,-96.680,0
1594888785.939,-23.926,-886.719,-407.227,-98.145,0
1594888785.943,-23.438,-757.324,-275.879,-97.656,0
1594888785.940,-12.695,-442.383,-176.270,-91.797,0
1594888785.944,-10.254,-383.301,-191.895,-92.773,0
1594888785.948,-19.531,-725.586,-386.719,-95.215,0
1594888785.952,-22.949,-901.367,-417.969,-88.379,0
1594888785.956,-11.719,-575.684,-228.516,-79.102,0
1594888785.960,-4.883,-739.258,-340.820,-80.566,0
1594888785.964,-7.812,-1000.000,-421.387,-83.496,0
1594888785.967,-15.625,-1000.000,-565.918,-77.637,0
1594888785.971,-29.297,-972.656,-595.215,-70.312,0
1594888785.975,-24.902,-707.031,-276.855,-72.754,0
1594888785.979,-23.438,-645.020,-317.383,-78.125,0
1594888785.983,-30.762,-730.957,-390.137,-80.078,0
1594888785.994,-16.602,-763.184,-332.031,-85.449,0
1594888785.998,-6.348,-925.781,-361.328,-79.102,0
1594888786.002,-18.555,-1000.000,-450.684,-67.871,0
1594888786.006,-26.855,-968.750,-427.246,-69.824,0
1594888786.010,-23.926,-954.590,-412.109,-72.266,0
1594888786.014,-17.578,-1000.000,-626.465,-67.871,0
1594888786.018,-19.043,-958.008,-579.590,-62.988,0
1594888786.021,-33.203,-833.984,-345.215,-72.266,0
1594888786.025,-35.645,-906.250,-387.207,-78.125,0
1594888786.029,-29.785,-1000.000,-433.105,-76.172,0
1594888786.033,-26.855,-956.543,-434.570,-80.078,0
1594888786.037,-30.273,-920.410,-394.531,-81.543,0
1594888786.035,-31.250,-964.355,-426.758,-75.684,0
1594888786.039,-22.461,-925.781,-372.559,-73.242,0
1594888786.043,-17.090,-940.918,-464.355,-71.777,0
1594888786.047,-20.996,-952.148,-514.160,-69.824,0
1594888786.051,-29.785,-905.762,-394.531,-71.777,0
1594888786.055,-28.320,-973.145,-448.730,-70.801,0
1594888786.059,-23.438,-984.375,-355.957,-66.895,0
1594888786.062,-28.320,-990.723,-495.605,-64.941,0
1594888786.066,-30.762,-992.676,-609.375,-61.523,0
1594888786.070,-22.949,-833.008,-302.734,-64.941,0
1594888786.074,-17.578,-577.637,-210.938,-65.918,0
1594888786.078,-16.602,-657.715,-300.781,-65.918,0
1594888786.089,-14.160,-929.199,-464.355,-75.195,0
1594888786.093,-17.090,-1000.000,-511.230,-79.590,0
1594888786.097,-12.207,-849.609,-347.656,-79.590,0
1594888786.101,-11.230,-555.176,-261.719,-77.148,0
1594888786.105,-22.949,-757.812,-332.031,-74.219,0
1594888786.109,-32.227,-1000.000,-642.578,-66.895,0
1594888786.113,-40.527,-998.047,-679.199,-60.547,0
1594888786.116,-33.203,-840.820,-325.195,-62.500,0
1594888786.120,-24.902,-692.871,-269.531,-67.871,0
1594888786.124,-28.809,-831.055,-427.246,-71.289,0
1594888786.128,-20.996,-992.676,-478.027,-62.988,0
1594888786.132,-17.090,-718.750,-280.273,-62.988,0
1594888786.127,-23.438,-571.777,-298.340,-65.430,0
1594888786.131,-25.879,-752.441,-359.375,-59.570,0
1594888786.135,-27.344,-900.391,-449.219,-49.805,0
1594888786.139,-21.973,-1000.000,-459.961,-51.270,0
1594888786.143,-21.484,-683.594,-231.445,-58.105,0
1594888786.147,-23.438,-750.000,-382.324,-62.500,0
1594888786.151,-28.320,-1000.000,-460.938,-70.312,0
1594888786.154,-28.320,-1000.000,-518.066,-67.383,0
1594888786.158,-11.719,-947.266,-536.133,-58.105,0
1594888786.162,-10.742,-657.715,-274.902,-57.129,0
1594888786.166,-20.508,-685.547,-364.258,-58.594,0
1594888786.170,-25.879,-895.508,-429.199,-60.059,0
1594888786.182,-27.832,-889.160,-344.727,-63.477,0
1594888786.186,-33.203,-857.422,-324.219,-68.848,0
1594888786.190,-38.574,-990.723,-425.293,-62.012,0
1594888786.194,-34.180,-913.086,-359.375,-58.105,0
1594888786.198,-23.926,-609.863,-226.562,-57.617,0
1594888786.202,-19.043,-767.090,-452.637,-45.410,0
1594888786.206,-20.508,-1000.000,-595.703,-41.016,0
1594888786.209,-25.879,-898.438,-355.469,-39.551,0
1594888786.213,-21.973,-552.734,-233.887,-30.273,0
1594888786.217,-12.207,-586.426,-323.730,-27.344,0
1594888786.221,-14.648,-910.645,-448.242,-23.926,0
1594888786.225,-13.184,-800.781,-360.352,-22.949,0
1594888786.221,-6.836,-564.941,-242.676,-26.367,0
1594888786.225,-10.742,-400.391,-148.438,-25.391,0
1594888786.229,-12.207,-630.371,-325.684,-22.461,0
1594888786.233,-19.531,-947.266,-428.711,-21.484,0
1594888786.237,-24.902,-807.129,-333.984,-16.113,0
1594888786.241,-21.973,-844.727,-360.352,-10.742,0
1594888786.245,-24.414,-934.570,-309.082,-11.230,0
1594888786.248,-28.809,-984.863,-512.695,-3.418,0
1594888786.252,-25.879,-927.734,-581.055,-6.836,0
1594888786.256,-26.367,-797.852,-294.434,-22.461,0
1594888786.260,-27.832,-630.371,-243.164,-26.367,0
1594888786.264,-24.414,-513.672,-298.828,-33.203,0
1594888786.275,-20.996,-798.828,-400.391,-32.715,0
1594888786.279,-10.742,-990.234,-365.234,-28.320,1
1594888786.283,-11.230,-873.047,-312.988,-33.203,0
1594888786.287,-23.438,-690.430,-317.871,-28.809,0
1594888786.291,-23.926,-698.242,-304.199,-24.902,0
1594888786.295,-17.090,-950.684,-508.301,-20.996,0
1594888786.299,-20.996,-898.926,-496.094,-21.484,0
1594888786.302,-33.691,-575.195,-227.051,-35.156,0
1594888786.306,-37.109,-524.414,-290.527,-42.969,0
1594888786.310,-24.414,-798.340,-400.391,-37.109,0
1594888786.314,-16.113,-891.602,-371.582,-29.297,0
1594888786.318,-23.926,-729.980,-319.336,-30.273,0
1594888786.333,-22.949,-888.184,-416.016,-22.949,0
1594888786.337,-20.508,-709.961,-290.039,-18.555,0
1594888786.341,-14.648,-751.953,-347.656,-20.996,0
1594888786.345,-9.277,-881.836,-410.156,-23.438,0
1594888786.349,-13.184,-659.668,-324.219,-24.902,0
1594888786.353,-19.043,-899.902,-474.121,-30.273,0
1594888786.357,-19.531,-962.402,-347.656,-31.250,0
1594888786.360,-9.277,-909.668,-434.082,-20.508,0
1594888786.364,-11.230,-983.887,-575.195,-16.113,0
1594888786.368,-13.672,-920.898,-363.281,-22.461,0
1594888786.372,-4.883,-754.395,-295.898,-21.484,0
1594888786.376,-4.883,-603.027,-271.973,-16.113,0
1594888786.369,-13.672,-844.727,-400.391,-28.320,0
1594888786.373,-23.438,-1000.000,-476.074,-38.574,0
1594888786.377,-29.297,-993.164,-424.316,-38.574,0
1594888786.381,-25.879,-835.938,-294.434,-35.645,0
1594888786.385,-22.949,-759.277,-315.918,-33.691,0
1594888786.389,-27.832,-1000.000,-645.996,-29.297,0
1594888786.393,-26.855,-954.102,-557.617,-27.832,0
1594888786.396,-15.625,-727.539,-275.391,-32.715,0
1594888786.400,-13.672,-457.031,-208.496,-41.992,0
1594888786.404,-17.090,-541.016,-275.879,-49.316,0
1594888786.408,-14.160,-959.473,-603.516,-42.480,0
1594888786.412,-9.277,-958.984,-554.199,-41.992,0
1594888786.409,-6.836,-633.789,-264.160,-50.781,0
1594888786.413,-18.066,-489.746,-248.047,-55.664,0
1594888786.417,-24.902,-818.359,-454.102,-52.734,0
1594888786.421,-12.207,-823.730,-432.129,-45.898,0
1594888786.425,-7.324,-617.676,-282.227,-47.363,0
1594888786.429,-12.207,-927.734,-438.477,-53.711,0
1594888786.433,-27.832,-1000.000,-383.301,-59.082,0
1594888786.436,-29.297,-1000.000,-480.469,-49.805,0
1594888786.440,-13.672,-968.262,-532.715,-39.551,0
1594888786.444,-12.695,-725.098,-271.973,-44.922,0
1594888786.448,-20.020,-772.949,-360.352,-47.852,0
1594888786.452,-20.508,-788.086,-376.953,-43.457,0
1594888786.463,-15.137,-784.180,-321.777,-48.828,0
1594888786.467,-16.602,-742.188,-266.113,-51.758,0
1594888786.471,-20.996,-631.836,-291.016,-45.898,0
1594888786.475,-22.949,-621.582,-320.801,-53.711,0
1594888786.479,-19.043,-398.926,-192.871,-64.941,0
1594888786.483,-12.695,-750.000,-448.730,-62.500,0
1594888786.487,-14.648,-989.746,-494.141,-55.176,0
1594888786.490,-31.250,-657.715,-277.344,-59.082,0
1594888786.494,-38.086,-696.289,-352.539,-61.523,0
1594888786.498,-28.809,-887.207,-339.355,-56.641,0
1594888786.502,-29.297,-858.398,-332.520,-55.664,0
1594888786.506,-33.203,-625.488,-307.617,-59.570,0
1594888786.519,-29.297,-554.199,-297.363,-58.594,0
1594888786.523,-23.438,-371.582,-189.453,-59.082,0
1594888786.527,-20.020,-537.598,-309.082,-60.059,0
1594888786.531,-22.461,-864.746,-408.203,-58.105,0
1594888786.535,-20.996,-791.504,-337.891,-56.641,0
1594888786.539,-17.578,-944.336,-428.711,-58.105,0
1594888786.543,-18.066,-955.566,-341.309,-55.176,0
1594888786.546,-19.043,-1000.000,-540.527,-46.875,0
1594888786.550,-30.273,-942.383,-577.148,-41.504,0
1594888786.554,-23.926,-616.211,-249.512,-42.969,0
1594888786.558,-8.301,-480.469,-244.141,-43.457,0
1594888786.562,-13.672,-779.785,-364.258,-48.340,0
1594888786.557,-15.137,-998.535,-507.812,-41.016,0
1594888786.561,-10.254,-1000.000,-509.277,-31.250,0
1594888786.565,-7.324,-863.281,-312.988,-31.738,0
1594888786.569,-12.695,-571.777,-181.152,-38.086,0
1594888786.573,-19.043,-740.234,-308.105,-40.527,0
1594888786.577,-9.277,-1000.000,-577.637,-30.273,0
1594888786.581,-5.859,-918.457,-418.945,-39.551,0
1594888786.584,-8.301,-601.562,-212.891,-49.316,0
1594888786.588,-13.672,-564.453,-298.340,-40.527,0
1594888786.592,-20.508,-834.961,-443.848,-38.574,0
1594888786.596,-17.578,-1000.000,-534.180,-34.180,0
1594888786.600,-20.508,-771.973,-326.172,-28.320,0
1594888786.597,-23.926,-558.594,-238.281,-24.902,0
1594888786.601,-26.367,-759.766,-323.730,-26.367,0
1594888786.605,-27.832,-1000.000,-481.934,-30.273,0
1594888786.609,-20.020,-856.445,-424.805,-28.809,0
1594888786.613,-16.113,-613.770,-245.605,-38.086,0
1594888786.617,-20.020,-886.230,-432.129,-40.527,0
1594888786.621,-22.461,-1000.000,-424.316,-36.133,0
1594888786.624,-20.996,-998.047,-460.449,-32.227,0
1594888786.628,-22.949,-895.508,-492.676,-32.715,0
1594888786.632,-32.227,-676.270,-299.316,-37.598,0
1594888786.636,-26.367,-602.539,-285.156,-30.273,0
1594888786.640,-19.043,-600.586,-275.879,-29.297,0
1594888786.650,-21.973,-767.578,-313.965,-37.109,0
1594888786.654,-28.320,-866.211,-334.961,-39.062,0
1594888786.658,-26.367,-845.703,-374.512,-42.480,0
1594888786.662,-13.672,-610.352,-296.387,-39.551,0
1594888786.666,-7.324,-592.285,-272.461,-40.527,0
1594888786.670,-13.184,-893.066,-518.555,-45.410,0
1594888786.674,-26.367,-1000.000,-614.746,-46.875,0
1594888786.677,-24.902,-871.094,-369.629,-48.828,0
1594888786.681,-12.207,-513.672,-230.957,-44.922,0
1594888786.685,-4.395,-687.012,-364.258,-42.480,0
1594888786.689,-7.812,-985.352,-451.660,-39.062,0
1594888786.693,-11.230,-687.988,-282.715,-42.480,0
1594888786.690,-5.371,-426.270,-216.797,-53.711,0
1594888786.694,-4.883,-490.723,-263.184,-58.105,0
1594888786.698,-10.742,-845.215,-425.293,-56.152,0
1594888786.702,-14.648,-822.754,-353.027,-58.594,0
1594888786.706,-10.742,-539.551,-224.121,-64.941,0
1594888786.710,-2.930,-859.375,-416.016,-65.430,0
1594888786.714,-13.672,-1000.000,-395.996,-62.988,0
1594888786.717,-26.855,-994.629,-529.785,-56.152,0
1594888786.721,-19.531,-970.703,-563.965,-51.758,0
1594888786.725,-14.648,-697.754,-265.625,-52.734,0
1594888786.729,-21.484,-549.316,-279.297,-56.641,0
1594888786.733,-28.320,-751.465,-379.395,-59.570,0
1594888786.744,-28.320,-898.926,-365.234,-54.199,0
1594888786.748,-28.320,-902.344,-323.242,-50.781,0
1594888786.752,-32.227,-972.656,-389.648,-60.059,0
1594888786.756,-32.227,-746.094,-339.844,-66.406,0
1594888786.760,-31.250,-719.727,-336.914,-59.082,0
1594888786.764,-26.367,-1000.000,-567.383,-55.176,0
1594888786.768,-24.414,-898.926,-527.344,-66.895,0
1594888786.771,-27.344,-673.340,-301.270,-76.172,0
1594888786.775,-25.879,-681.152,-317.383,-73.242,0
1594888786.779,-23.926,-611.816,-261.230,-72.266,0
1594888786.783,-22.461,-726.562,-295.898,-63.965,0
1594888786.787,-13.184,-602.539,-253.418,-61.523,0
1594888786.785,-16.113,-447.266,-236.816,-66.406,0
1594888786.789,-20.508,-435.547,-216.309,-63.477,0
1594888786.793,-10.254,-685.059,-387.695,-64.941,0
1594888786.797,-14.648,-861.328,-452.637,-77.637,0
1594888786.801,-27.344,-667.480,-323.242,-73.730,0
1594888786.805,-29.297,-804.199,-363.770,-71.289,0
1594888786.809,-20.020,-671.387,-209.961,-75.195,0
1594888786.812,-18.555,-749.023,-386.719,-75.195,0
1594888786.816,-25.879,-946.289,-521.484,-81.055,0
1594888786.820,-26.855,-697.266,-292.969,-81.055,0
1594888786.824,-16.113,-419.434,-195.801,-79.590,0
1594888786.828,-17.090,-313.965,-220.215,-85.938,0
1594888786.839,-30.762,-767.578,-425.293,-91.797,0
1594888786.843,-33.203,-1000.000,-410.156,-81.055,0
1594888786.847,-26.367,-980.469,-376.953,-67.871,0
1594888786.851,-27.344,-888.184,-350.586,-64.453,0
1594888786.855,-36.133,-722.168,-266.113,-68.848,0
1594888786.859,-34.180,-922.852,-549.805,-67.383,0
1594888786.863,-24.414,-1000.000,-652.832,-59.082,0
1594888786.866,-17.090,-644.043,-272.461,-58.105,0
1594888786.870,-13.184,-325.684,-168.457,-62.012,0
1594888786.874,-18.555,-612.305,-355.469,-69.336,0
1594888786.878,-23.438,-913.086,-417.969,-75.684,0
1594888786.882,-16.113,-682.617,-276.367,-70.312,0
1594888786.877,-11.719,-519.043,-264.648,-62.012,0
1594888786.881,-8.789,-541.992,-293.945,-66.406,0
1594888786.885,-13.672,-803.223,-387.207,-77.637,0
1594888786.889,-19.531,-921.387,-372.070,-78.125,0
1594888786.893,-17.090,-791.992,-275.391,-74.707,0
1594888786.897,-21.484,-944.824,-397.461,-81.055,0
1594888786.901,-28.809,-950.684,-383.301,-89.355,0
1594888786.904,-20.996,-916.504,-455.566,-90.820,0
1594888786.908,-15.137,-991.211,-587.402,-93.262,0
1594888786.912,-13.672,-796.875,-324.219,-95.703,0
1594888786.916,-14.160,-600.586,-282.227,-94.727,0
1594888786.920,-18.555,-599.121,-340.820,-98.633,0
1594888786.932,-6.348,-673.340,-287.598,-99.609,0
1594888786.936,-4.883,-705.078,-246.582,-96.191,0
1594888786.940,-13.184,-743.164,-312.012,-94.238,0
1594888786.944,-18.066,-571.289,-253.418,-93.262,0
1594888786.948,-19.043,-460.938,-206.543,-94.238,0
1594888786.952,-28.809,-823.242,-495.117,-83.496,0
1594888786.956,-43.457,-1000.000,-612.305,-73.730,0
1594888786.959,-49.805,-939.941,-380.371,-78.613,0
1594888786.963,-41.016,-619.141,-238.281,-78.613,0
1594888786.967,-27.344,-646.484,-326.172,-76.172,0
1594888786.971,-27.832,-939.941,-457.031,-77.637,0
1594888786.975,-32.227,-820.312,-327.148,-79.102,0
1594888786.971,-25.879,-620.605,-240.234,-77.637,0
1594888786.975,-20.996,-328.125,-134.766,-85.449,0
1594888786.979,-23.438,-544.434,-250.977,-90.332,0
1594888786.983,-23.438,-945.312,-448.730,-82.520,0
1594888786.987,-23.438,-811.523,-331.055,-81.055,0
1594888786.991,-18.555,-799.805,-316.406,-84.961,0
1594888786.995,-24.902,-704.590,-285.645,-90.332,0
1594888786.998,-33.691,-783.691,-418.945,-85.938,0
1594888787.002,-32.227,-899.902,-529.785,-73.730,0
1594888787.006,-24.902,-692.383,-312.500,-79.102,0
1594888787.010,-22.949,-655.762,-264.648,-88.379,0
1594888787.014,-31.250,-612.793,-280.762,-89.355,0
1594888787.025,-33.203,-830.078,-410.645,-78.613,0
1594888787.029,-32.715,-1000.000,-391.113,-71.289,0
1594888787.033,-34.668,-829.590,-291.992,-77.637,0
1594888787.037,-33.691,-522.461,-236.816,-87.402,0
1594888787.041,-27.344,-529.785,-283.203,-85.449,0
1594888787.045,-19.531,-913.574,-546.387,-74.707,0
1594888787.049,-16.113,-892.090,-499.512,-74.219,0
1594888787.052,-24.414,-575.195,-278.320,-86.426,0
1594888787.056,-35.156,-559.570,-291.992,-91.309,0
1594888787.060,-37.598,-638.184,-292.969,-92.773,0
1594888787.064,-26.855,-729.492,-270.508,-95.703,0
1594888787.068,-17.090,-644.531,-235.352,-92.285,0
1594888787.066,-15.625,-845.703,-396.973,-86.426,0
1594888787.070,-18.066,-906.250,-373.535,-86.914,0
1594888787.074,-18.066,-849.121,-397.949,-82.520,0
1594888787.078,-18.066,-837.402,-442.871,-79.590,0
1594888787.082,-15.625,-702.148,-327.637,-81.543,0
1594888787.086,-17.090,-948.730,-454.102,-83.984,0
1594888787.090,-19.043,-1000.000,-378.906,-88.379,0
1594888787.093,-13.184,-981.445,-459.961,-81.055,0
1594888787.097,-11.230,-956.055,-523.926,-73.730,0
1594888787.101,-20.508,-828.613,-322.754,-82.520,0
1594888787.105,-33.691,-596.680,-268.066,-92.285,0
1594888787.109,-28.809,-426.270,-253.906,-92.285,0
1594888787.119,-26.855,-745.605,-351.562,-89.844,0
1594888787.123,-31.250,-1000.000,-447.754,-86.426,0
1594888787.127,-24.414,-926.758,-420.410,-78.613,0
1594888787.131,-20.996,-895.020,-379.395,-71.777,0
1594888787.135,-27.344,-996.094,-386.230,-77.637,0
1594888787.139,-27.832,-1000.000,-581.055,-76.660,0
1594888787.143,-19.043,-999.023,-655.273,-60.547,0
1594888787.146,-23.926,-724.121,-297.363,-69.824,0
1594888787.150,-27.832,-387.695,-205.078,-85.449,0
1594888787.154,-21.484,-550.293,-357.910,-82.031,0
1594888787.158,-27.832,-805.664,-376.465,-83.496,0
1594888787.162,-22.949,-548.340,-230.469,-90.332,0
1594888787.158,-14.160,-462.402,-251.465,-94.238,0
1594888787.162,-11.719,-569.336,-289.551,-97.656,0
1594888787.166,-8.789,-839.355,-445.312,-99.121,0
1594888787.170,-20.020,-859.375,-401.367,-100.586,0
1594888787.174,-20.508,-489.258,-197.754,-93.750,1
1594888787.178,-20.996,-776.367,-383.301,-87.891,0
1594888787.182,-30.762,-1000.000,-415.039,-81.543,0
1594888787.185,-28.320,-998.047,-540.039,-72.266,0
1594888787.189,-20.508,-970.215,-578.613,-67.383,0
1594888787.193,-16.602,-688.965,-264.648,-69.824,0
1594888787.197,-21.973,-685.547,-330.078,-75.195,0
1594888787.201,-20.020,-806.152,-361.328,-80.566,0
1594888787.213,-12.695,-827.637,-336.426,-83.984,0
1594888787.217,-17.090,-955.566,-406.250,-80.078,0
1594888787.221,-22.461,-981.934,-427.246,-76.660,0
1594888787.225,-20.508,-910.156,-325.684,-79.102,0
1594888787.229,-17.578,-729.492,-224.121,-76.660,0
1594888787.233,-15.137,-842.773,-466.797,-66.406,0
1594888787.237,-11.719,-1000.000,-587.891,-62.988,0
1594888787.240,-17.090,-771.973,-299.805,-65.430,0
1594888787.244,-20.996,-655.273,-301.270,-68.359,0
1594888787.248,-11.230,-880.371,-350.586,-72.754,0
1594888787.252,-11.230,-913.086,-328.613,-79.102,0
1594888787.256,-15.625,-748.535,-336.426,-82.520,0
1594888787.252,-10.254,-607.422,-296.387,-78.125,0
1594888787.256,-5.859,-508.789,-208.496,-74.707,0
1594888787.260,-0.488,-759.277,-345.703,-75.684,0
1594888787.264,-7.324,-919.434,-415.527,-86.914,0
1594888787.268,-21.484,-779.785,-334.961,-91.797,0
1594888787.272,-16.113,-953.125,-450.195,-78.613,0
1594888787.276,-5.859,-962.891,-366.211,-74.219,0
1594888787.279,-9.766,-941.406,-491.699,-76.172,0
1594888787.283,-21.973,-952.148,-570.312,-79.102,0
1594888787.287,-25.391,-634.277,-257.812,-85.449,0
1594888787.291,-17.578,-421.387,-233.398,-83.008,0
1594888787.295,-14.160,-752.441,-367.188,-80.078,0
1594888787.307,-19.531,-1000.000,-474.121,-82.031,0
1594888787.311,-21.484,-978.027,-409.180,-83.496,0
1594888787.315,-16.602,-750.977,-220.215,-77.637,0
1594888787.319,-23.438,-444.824,-206.055,-74.219,0
1594888787.323,-36.133,-581.543,-311.035,-77.148,0
1594888787.327,-38.574,-932.617,-557.129,-77.148,0
1594888787.331,-38.574,-848.633,-516.602,-72.754,0
1594888787.334,-35.156,-470.215,-221.191,-70.801,0
1594888787.338,-35.156,-403.809,-278.320,-77.148,0
1594888787.342,-33.691,-670.410,-364.746,-77.637,0
1594888787.346,-23.926,-713.867,-291.504,-70.312,0
1594888787.350,-14.160,-317.871,-91.797,-62.500,0
1594888787.346,-18.066,-395.020,-176.758,-57.129,0
1594888787.350,-29.297,-596.191,-292.969,-61.523,0
1594888787.354,-23.438,-884.277,-469.238,-60.547,0
1594888787.358,-8.789,-919.922,-461.914,-60.059,0
1594888787.362,-5.859,-804.199,-315.918,-68.848,0
1594888787.366,-10.742,-990.234,-500.488,-73.730,0
1594888787.370,-5.859,-973.145,-419.922,-72.266,0
1594888787.373,-2.930,-960.938,-420.410,-71.289,0
1594888787.377,-8.789,-934.082,-488.770,-76.172,0
1594888787.381,-16.602,-770.996,-311.035,-72.754,0
1594888787.385,-22.461,-851.562,-358.887,-70.312,0
1594888787.389,-21.484,-812.500,-325.684,-77.637,0
1594888787.400,-15.137,-875.000,-344.727,-75.684,0
1594888787.404,-20.020,-1000.000,-514.648,-77.148,0
1594888787.408,-29.785,-987.793,-512.695,-82.520,0
1594888787.412,-30.762,-830.078,-324.219,-81.055,0
1594888787.416,-24.902,-826.172,-349.121,-73.242,0
1594888787.420,-26.367,-988.281,-623.535,-76.660,0
1594888787.424,-27.344,-1000.000,-682.617,-80.078,0
1594888787.427,-22.949,-925.293,-367.676,-88.379,0
1594888787.431,-20.996,-540.039,-180.664,-95.215,0
1594888787.435,-27.344,-665.527,-363.770,-86.426,0
1594888787.439,-33.203,-1000.000,-552.246,-77.637,0
1594888787.443,-28.320,-883.301,-355.469,-73.730,0
1594888787.440,-23.438,-640.625,-247.070,-73.242,0
1594888787.444,-27.344,-524.902,-263.184,-77.637,0
1594888787.448,-32.715,-830.566,-455.078,-76.172,0
1594888787.452,-29.785,-926.758,-451.660,-80.566,0
1594888787.456,-23.926,-694.824,-281.738,-89.355,0
1594888787.460,-20.020,-885.254,-424.316,-87.891,0
1594888787.464,-19.531,-1000.000,-432.617,-87.891,0
1594888787.467,-19.043,-979.980,-524.414,-84.473,0
1594888787.471,-12.207,-1000.000,-600.098,-81.543,0
1594888787.475,-10.742,-782.715,-295.898,-79.102,0
1594888787.479,-19.531,-555.176,-241.211,-69.824,0
1594888787.483,-28.809,-752.930,-381.348,-67.383,0
1594888787.494,-29.785,-908.203,-422.852,-60.547,0
1594888787.498,-24.902,-748.047,-294.922,-62.012,0
1594888787.502,-27.344,-722.168,-307.129,-71.289,0
1594888787.506,-34.668,-747.070,-351.562,-70.312,0
1594888787.510,-31.738,-651.855,-312.012,-71.777,0
1594888787.514,-25.879,-901.855,-554.688,-67.871,0
1594888787.518,-29.297,-994.141,-563.965,-61.035,0
1594888787.521,-36.621,-772.949,-309.082,-63.477,0
1594888787.525,-40.039,-621.582,-276.855,-61.523,0
1594888787.529,-32.715,-635.254,-284.180,-49.805,0
1594888787.533,-29.297,-828.613,-352.539,-41.504,0
1594888787.537,-35.156,-959.961,-395.996,-56.152,0
1594888787.535,-36.621,-715.820,-324.707,-64.941,0
1594888787.539,-31.738,-463.867,-229.980,-66.406,0
1594888787.543,-19.043,-766.113,-401.367,-67.383,0
1594888787.547,-15.625,-960.449,-464.355,-61.035,0
1594888787.551,-21.484,-777.832,-314.453,-62.988,0
1594888787.555,-20.020,-735.840,-323.242,-67.871,0
1594888787.559,-13.184,-507.324,-162.598,-69.824,0
1594888787.562,-14.648,-603.516,-278.809,-68.359,0
1594888787.566,-18.066,-905.273,-449.219,-64.941,0
1594888787.570,-17.578,-515.137,-214.355,-61.035,0
1594888787.574,-13.184,-245.117,-136.719,-59.082,0
1594888787.578,-12.207,-265.625,-189.941,-60.059,0
1594888787.589,-17.090,-674.316,-362.793,-64.453,0
1594888787.593,-19.531,-940.430,-375.000,-65.430,0
1594888787.597,-13.184,-926.270,-332.031,-61.523,0
1594888787.601,-12.695,-626.953,-170.410,-66.406,0
1594888787.605,-16.113,-398.438,-142.090,-64.453,0
1594888787.609,-17.578,-823.242,-529.785,-62.500,0
1594888787.613,-15.625,-1000.000,-633.789,-58.105,0
1594888787.616,-7.324,-643.555,-259.766,-65.918,0
1594888787.620,-1.465,-226.562,-90.820,-70.312,0
1594888787.624,-1.465,-516.113,-313.477,-59.082,0
1594888787.628,-4.395,-759.277,-375.000,-55.664,0
1594888787.632,-6.348,-561.035,-262.207,-49.316,0
1594888787.628,-11.230,-456.543,-237.793,-57.617,0
1594888787.632,-25.391,-528.809,-250.000,-62.500,0
1594888787.636,-36.133,-857.422,-415.527,-62.012,0
1594888787.640,-34.668,-786.621,-301.758,-66.895,0
1594888787.644,-34.668,-487.793,-182.129,-68.848,0
1594888787.648,-36.133,-869.141,-502.441,-62.012,0
1594888787.652,-41.992,-1000.000,-451.172,-61.523,0
1594888787.655,-38.086,-990.234,-510.742,-59.570,0
1594888787.659,-31.250,-981.445,-559.082,-57.617,0
1594888787.663,-36.621,-783.691,-335.938,-59.570,0
1594888787.667,-28.809,-760.742,-375.488,-57.617,0
1594888787.671,-19.043,-829.590,-352.051,-60.547,0
1594888787.682,-10.254,-881.348,-328.125,-61.523,0
1594888787.686,-14.648,-993.652,-397.949,-62.988,0
1594888787.690,-30.273,-980.957,-416.992,-66.406,0
1594888787.694,-33.203,-667.480,-280.762,-65.430,0
1594888787.698,-26.855,-591.797,-250.488,-66.895,0
1594888787.702,-23.926,-946.289,-542.480,-63.965,0
1594888787.706,-30.273,-979.004,-601.074,-56.152,0
1594888787.709,-31.738,-965.332,-420.898,-52.246,0
1594888787.713,-20.020,-854.004,-347.656,-43.945,0
1594888787.717,-10.254,-575.195,-259.277,-40.527,0
1594888787.721,-13.184,-863.770,-410.645,-41.504,0
1594888787.725,-23.438,-977.051,-399.902,-40.527,0
1594888787.721,-20.020,-679.688,-281.250,-37.109,0
1594888787.725,-7.812,-458.496,-223.145,-41.016,0
1594888787.729,-9.766,-728.027,-381.348,-43.945,0
1594888787.733,-16.602,-927.246,-464.355,-44.922,0
1594888787.737,-20.020,-673.828,-306.152,-46.387,0
1594888787.741,-20.508,-770.020,-338.379,-46.875,0
1594888787.745,-22.461,-905.762,-337.891,-54.688,0
1594888787.748,-20.996,-997.070,-533.691,-45.898,0
1594888787.752,-19.043,-948.242,-551.270,-48.340,0
1594888787.756,-17.090,-696.777,-279.297,-58.594,0
1594888787.760,-16.602,-765.625,-318.359,-51.270,0
1594888787.764,-25.391,-987.305,-417.969,-45.898,0
1594888787.775,-33.691,-992.188,-529.785,-37.109,0
1594888787.779,-30.273,-1000.000,-472.168,-23.438,0
1594888787.783,-23.438,-897.949,-356.445,-24.414,0
1594888787.787,-24.414,-718.750,-340.332,-24.414,0
1594888787.791,-23.438,-840.332,-372.559,-11.230,0
1594888787.795,-23.926,-1000.000,-584.473,-4.883,0
1594888787.799,-15.137,-938.477,-537.109,-6.348,0
1594888787.802,-15.625,-690.918,-254.883,-11.230,0
1594888787.806,-30.273,-544.922,-275.391,-12.207,0
1594888787.810,-29.297,-626.953,-312.500,-7.812,0
1594888787.814,-17.578,-687.500,-263.672,-4.883,0
1594888787.818,-13.184,-449.219,-226.562,-6.836,0
1594888787.816,-16.602,-499.512,-306.641,-7.812,0
1594888787.820,-17.578,-798.340,-392.090,0.000,0
1594888787.824,-20.020,-985.352,-450.195,2.930,0
1594888787.828,-26.855,-730.469,-318.359,5.371,0
1594888787.832,-43.945,-528.320,-316.895,11.230,0
1594888787.836,-46.387,-889.648,-477.539,18.066,0
1594888787.840,-33.203,-978.027,-331.055,22.949,0
1594888787.843,-21.973,-938.965,-389.160,21.973,0
1594888787.847,-19.043,-921.387,-499.512,15.625,0
1594888787.851,-28.320,-740.723,-325.684,5.859,0
1594888787.855,-26.855,-636.719,-287.598,9.277,0
1594888787.859,-13.672,-527.832,-255.371,9.766,0
1594888787.869,-3.906,-741.699,-350.586,8.301,0
1594888787.873,-9.766,-1000.000,-426.758,12.695,0
1594888787.877,-17.090,-921.875,-396.484,12.207,0
1594888787.881,-17.090,-688.965,-309.570,10.254,0
1594888787.885,-16.113,-806.641,-311.523,6.348,0
1594888787.889,-13.184,-1000.000,-572.266,14.648,0
1594888787.893,-14.160,-1000.000,-664.062,22.461,0
1594888787.896,-17.578,-793.945,-355.957,11.719,0
1594888787.900,-23.438,-580.566,-230.469,3.906,0
1594888787.904,-25.391,-838.379,-426.270,-2.930,0
1594888787.908,-31.738,-965.332,-466.797,-8.789,0
1594888787.912,-33.691,-715.820,-291.992,-9.277,0
1594888787.909,-23.926,-677.246,-336.914,-7.812,0
1594888787.913,-22.949,-596.191,-277.344,-11.230,0
1594888787.917,-35.645,-715.332,-342.773,-11.719,0
1594888787.921,-38.574,-843.750,-371.094,1.465,0
1594888787.925,-36.621,-610.840,-225.098,8.789,0
1594888787.929,-35.156,-827.637,-345.703,-0.488,0
1594888787.933,-36.133,-969.238,-316.895,-7.812,0
1594888787.936,-38.086,-970.215,-454.102,-2.441,0
1594888787.940,-32.715,-991.699,-555.176,6.348,0
1594888787.944,-28.320,-684.082,-270.020,10.254,0
1594888787.948,-29.297,-508.301,-272.949,3.906,0
1594888787.952,-28.809,-664.062,-359.863,-6.836,0
1594888787.963,-27.344,-754.395,-305.664,-7.324,0
1594888787.967,-27.344,-850.098,-324.707,-7.812,0
1594888787.971,-25.391,-820.312,-344.727,-4.883,0
1594888787.975,-24.902,-592.773,-246.582,-0.488,0
1594888787.979,-23.438,-591.309,-244.629,-3.418,0
1594888787.983,-18.066,-864.258,-500.000,-14.160,0
1594888787.987,-17.090,-986.816,-557.129,-20.996,0
1594888787.990,-19.531,-601.562,-232.910,-19.531,0
1594888787.994,-20.020,-473.145,-270.996,-23.438,2
1594888787.998,-15.625,-713.867,-346.191,-30.273,0
1594888788.002,-14.160,-831.543,-350.098,-27.344,0
1594888788.006,-21.973,-847.168,-386.230,-30.762,0
1594888788.004,-12.207,-852.051,-378.906,-24.902,0
1594888788.008,-4.395,-713.867,-267.090,-12.207,0
1594888788.012,-1.953,-865.723,-390.625,-16.602,0
1594888788.016,-4.395,-884.277,-416.504,-22.461,0
1594888788.020,-9.277,-647.949,-294.434,-17.578,0
1594888788.024,-12.695,-922.363,-405.273,-12.207,0
1594888788.028,-14.648,-889.648,-295.898,-23.438,0
1594888788.031,-18.555,-839.844,-451.660,-28.809,0
1594888788.035,-25.879,-973.633,-573.242,-14.160,0
1594888788.039,-24.414,-637.207,-255.371,-12.695,0
1594888788.043,-21.973,-323.730,-144.531,-29.297,0
1594888788.047,-31.250,-312.500,-197.754,-45.410,0
1594888788.058,-39.551,-749.512,-380.371,-54.688,0
1594888788.062,-37.598,-998.535,-373.535,-62.012,0
1594888788.066,-31.738,-732.422,-223.633,-74.219,0
1594888788.070,-30.273,-493.652,-229.492,-87.891,0
1594888788.074,-28.809,-687.012,-346.191,-97.656,0
1594888788.078,-22.461,-967.285,-561.035,-96.191,0
1594888788.082,-19.043,-1000.000,-667.480,-89.844,0
1594888788.085,-16.602,-713.867,-357.910,-95.215,0
1594888788.089,-20.996,-483.398,-263.672,-104.980,0
1594888788.093,-29.785,-758.301,-372.559,-115.234,0
1594888788.097,-21.973,-871.582,-352.051,-121.094,0
1594888788.101,-12.695,-620.605,-262.695,-122.559,0
1594888788.096,-15.137,-585.938,-295.898,-127.441,0
1594888788.100,-22.461,-722.168,-352.539,-137.695,0
1594888788.104,-21.484,-869.629,-420.410,-134.277,0
1594888788.108,-19.531,-986.328,-406.250,-131.836,0
1594888788.112,-20.996,-896.484,-331.055,-135.742,0
1594888788.116,-22.949,-949.707,-419.922,-128.418,0
1594888788.120,-27.832,-833.984,-303.711,-128.418,0
1594888788.123,-21.484,-771.973,-359.375,-117.188,0
1594888788.127,-21.973,-1000.000,-549.316,-102.539,0
1594888788.131,-24.902,-713.867,-284.668,-111.816,0
1594888788.135,-16.602,-667.480,-306.152,-119.629,0
1594888788.139,-5.859,-816.895,-373.535,-123.047,0
1594888788.150,-2.441,-814.941,-342.285,-128.906,0
1594888788.154,-4.883,-925.293,-365.723,-132.812,0
1594888788.158,-6.836,-981.934,-414.551,-126.953,0
1594888788.162,-18.555,-750.977,-301.758,-126.953,0
1594888788.166,-30.273,-574.707,-241.211,-134.766,0
1594888788.170,-35.645,-882.812,-578.613,-133.789,0
1594888788.174,-35.645,-1000.000,-657.715,-132.812,0
1594888788.177,-30.273,-882.324,-324.707,-126.953,0
1594888788.181,-13.672,-467.773,-177.734,-116.211,0
1594888788.185,-7.324,-491.211,-277.344,-104.980,0
1594888788.189,-20.508,-909.668,-409.668,-101.074,0
1594888788.193,-35.156,-817.383,-307.129,-107.910,0
1594888788.190,-28.320,-527.832,-221.680,-104.492,0
1594888788.194,-21.973,-432.129,-213.379,-100.098,0
1594888788.198,-27.832,-680.176,-335.938,-99.609,0
1594888788.202,-25.879,-877.930,-412.109,-104.980,0
1594888788.206,-22.461,-714.355,-314.453,-116.211,0
1594888788.210,-25.879,-869.629,-367.676,-118.164,0
1594888788.214,-47.363,-1000.000,-386.719,-114.746,0
1594888788.217,-57.129,-1000.000,-544.922,-108.398,0
1594888788.221,-57.129,-909.180,-514.648,-111.328,0
1594888788.225,-60.059,-841.797,-251.953,-120.117,0
1594888788.229,-62.500,-784.180,-303.711,-129.395,0
1594888788.233,-63.965,-659.180,-319.824,-126.465,0
1594888788.244,-53.223,-894.043,-454.590,-110.840,0
1594888788.248,-43.945,-1000.000,-479.492,-116.699,0
1594888788.252,-42.480,-938.477,-369.629,-125.000,0
1594888788.256,-38.574,-795.410,-339.844,-112.793,0
1594888788.260,-32.227,-768.066,-301.758,-100.586,0
1594888788.264,-27.344,-992.188,-550.293,-91.309,0
1594888788.268,-16.113,-949.219,-513.672,-91.309,0
1594888788.271,-12.695,-558.105,-181.152,-93.262,0
1594888788.275,-14.160,-416.992,-230.469,-97.656,0
1594888788.279,0.977,-587.402,-296.875,-94.727,0
1594888788.283,17.090,-702.637,-301.270,-89.355,0
1594888788.287,17.090,-775.879,-361.328,-84.473,0
1594888788.285,9.766,-945.312,-437.012,-81.543,0
1594888788.289,5.859,-854.980,-330.566,-77.637,0
1594888788.293,-1.465,-913.086,-404.297,-65.430,0
1594888788.297,-19.531,-922.852,-421.875,-59.082,0
1594888788.301,-29.297,-752.930,-306.641,-55.176,0
1594888788.305,-25.391,-898.926,-375.977,-47.363,0
1594888788.309,-22.949,-984.375,-334.473,-47.852,0
1594888788.312,-19.043,-979.492,-460.938,-46.875,0
1594888788.316,-22.461,-985.352,-541.504,-49.316,0
1594888788.320,-19.043,-823.242,-315.918,-61.523,0
1594888788.324,-2.930,-654.785,-266.113,-60.547,0
1594888788.328,-4.883,-615.234,-317.383,-55.176,0
1594888788.338,-19.531,-796.875,-392.090,-61.523,0
1594888788.342,-15.625,-948.242,-378.418,-55.176,0
1594888788.346,-5.371,-999.512,-382.324,-50.293,0
1594888788.350,-3.906,-841.309,-333.984,-59.570,0
1594888788.354,-10.742,-579.102,-264.160,-60.547,0
1594888788.358,-18.066,-862.305,-538.086,-57.617,0
1594888788.362,-20.996,-1000.000,-661.133,-60.547,0
1594888788.365,-15.625,-824.219,-359.863,-62.500,0
1594888788.369,-6.348,-479.004,-193.848,-62.500,0
1594888788.373,-14.648,-573.242,-340.332,-62.988,0
1594888788.377,-26.367,-742.188,-331.055,-61.523,0
1594888788.381,-22.461,-499.512,-192.871,-56.152,0
1594888788.377,-20.020,-515.137,-255.371,-51.270,0
1594888788.381,-20.508,-500.488,-250.488,-51.270,0
1594888788.385,-18.066,-727.051,-394.043,-52.246,0
1594888788.389,-14.160,-881.348,-394.531,-52.246,0
1594888788.393,-15.137,-663.574,-271.973,-49.805,0
1594888788.397,-20.020,-924.805,-440.430,-45.410,0
1594888788.401,-23.926,-1000.000,-398.438,-44.434,0
1594888788.404,-21.973,-986.816,-457.031,-44.434,0
1594888788.408,-11.230,-971.680,-513.184,-45.898,0
1594888788.412,-16.113,-788.574,-333.984,-52.246,0
1594888788.416,-26.367,-761.719,-351.074,-52.246,0
1594888788.420,-20.508,-698.730,-296.387,-46.875,0
1594888788.432,-9.277,-743.164,-274.414,-45.410,0
1594888788.436,-0.488,-935.059,-340.332,-43.457,0
1594888788.440,-13.184,-960.449,-384.766,-46.875,0
1594888788.444,-26.855,-704.590,-293.457,-45.410,0
1594888788.448,-16.602,-573.730,-236.816,-41.992,0
1594888788.452,-15.625,-891.602,-551.270,-46.387,0
1594888788.456,-26.855,-1000.000,-628.906,-40.527,0
1594888788.459,-32.227,-806.152,-320.312,-36.133,0
1594888788.463,-34.668,-629.395,-242.676,-37.598,0
1594888788.467,-25.391,-756.348,-299.805,-34.668,0
1594888788.471,-21.973,-859.863,-345.215,-29.785,0
1594888788.475,-33.691,-679.688,-271.973,-34.668,0
1594888788.471,-35.156,-601.074,-276.367,-37.109,0
1594888788.475,-21.484,-580.078,-242.188,-32.715,0
1594888788.479,-20.020,-674.805,-314.941,-31.250,0
1594888788.483,-25.391,-982.422,-482.422,-32.227,0
1594888788.487,-22.949,-872.070,-375.488,-35.645,0
1594888788.491,-8.789,-893.555,-400.391,-33.691,0
1594888788.495,-8.789,-997.559,-353.516,-38.574,0
1594888788.498,-22.461,-982.910,-479.004,-33.691,0
1594888788.502,-20.020,-938.477,-549.805,-28.809,0
1594888788.506,-9.766,-744.629,-261.719,-40.527,0
1594888788.510,-9.766,-589.844,-250.488,-46.875,0
1594888788.514,-4.395,-757.812,-333.496,-35.156,0
1594888788.525,0.000,-1000.000,-513.184,-23.926,0
1594888788.529,6.348,-988.770,-455.078,-20.508,0
1594888788.533,10.742,-823.242,-279.297,-12.695,0
1594888788.537,-7.812,-767.090,-349.121,-26.367,0
1594888788.541,-15.625,-916.992,-412.598,-34.180,0
1594888788.545,-13.672,-1000.000,-581.543,-30.762,0
1594888788.549,-7.812,-960.938,-504.395,-26.855,0
1594888788.552,-14.160,-604.004,-190.918,-29.785,0
1594888788.556,-30.762,-542.480,-298.828,-42.480,0
1594888788.560,-59.570,-877.441,-430.664,-64.453,0
1594888788.564,-80.566,-921.387,-396.484,-89.355,0
1594888788.568,-88.379,-835.449,-343.262,-102.539,0
1594888788.565,-107.422,-609.375,-288.574,-115.723,0
1594888788.569,-121.582,-558.105,-275.879,-127.441,0
1594888788.573,-122.070,-895.996,-404.785,-126.953,0
1594888788.577,-132.324,-903.320,-422.363,-137.695,0
1594888788.581,-135.742,-690.430,-310.059,-128.418,0
1594888788.585,-128.906,-895.508,-424.805,-110.352,0
1594888788.589,-125.977,-941.406,-336.914,-111.328,0
1594888788.592,-117.188,-861.328,-395.020,-99.121,0
1594888788.596,-108.887,-940.918,-541.504,-90.332,0
1594888788.600,-99.609,-729.004,-313.965,-80.566,0
1594888788.604,-93.262,-624.512,-286.133,-74.219,0
1594888788.608,-81.543,-631.836,-285.156,-73.730,0
1594888788.619,-67.383,-774.902,-337.891,-55.664,0
1594888788.623,-65.430,-953.613,-407.715,-40.527,0
1594888788.627,-52.246,-902.832,-371.582,-29.785,0
1594888788.631,-30.273,-554.688,-229.492,-8.301,0
1594888788.635,-24.902,-421.875,-201.660,1.953,0
1594888788.639,-29.785,-814.941,-538.086,4.395,0
1594888788.643,-12.207,-1000.000,-622.559,24.414,0
1594888788.646,-6.836,-697.266,-259.766,27.344,0
1594888788.650,-9.766,-231.934,-130.371,18.066,0
1594888788.654,-1.465,-397.949,-263.672,18.555,0
1594888788.658,-1.465,-852.051,-389.160,18.066,0
1594888788.662,4.395,-634.277,-267.090,18.555,0
1594888788.659,15.137,-461.426,-268.066,21.484,0
1594888788.663,18.066,-463.867,-239.258,21.973,0
1594888788.667,9.277,-707.031,-375.000,26.855,0
1594888788.671,9.277,-816.895,-373.047,32.715,0
1594888788.675,14.648,-414.551,-180.664,27.832,0
1594888788.679,20.020,-765.137,-401.367,25.879,0
1594888788.683,19.043,-957.031,-354.492,23.438,0
1594888788.686,18.066,-895.020,-445.312,18.555,0
1594888788.690,21.973,-979.492,-566.895,22.461,0
1594888788.694,18.066,-705.078,-300.293,15.625,0
1594888788.698,9.277,-486.816,-268.066,7.324,0
1594888788.702,10.254,-561.523,-325.195,7.324,0
1594888788.713,19.043,-823.242,-365.234,1.465,0
1594888788.717,15.625,-978.027,-358.887,-6.348,0
1594888788.721,16.113,-938.965,-393.066,-4.395,0
1594888788.725,10.742,-794.434,-318.848,0.488,0
1594888788.729,7.324,-650.391,-251.465,-7.324,0
1594888788.733,16.113,-851.074,-551.270,-7.812,0
1594888788.737,12.695,-979.980,-617.676,-12.207,0
1594888788.740,4.395,-846.191,-340.820,-22.949,0
1594888788.744,7.324,-548.340,-236.328,-16.113,0
1594888788.748,7.812,-432.129,-231.445,-17.090,0
1594888788.752,-3.418,-895.508,-375.977,-17.090,0
1594888788.756,-5.859,-859.863,-346.680,-12.207,0
1594888788.754,-7.324,-538.574,-269.043,-13.184,0
1594888788.758,-17.090,-406.250,-187.988,-22.461,0
1594888788.762,-10.742,-614.746,-334.473,-23.926,0
1594888788.766,-3.906,-916.992,-458.008,-10.742,0
1594888788.770,-6.836,-803.223,-344.238,2.441,0
1594888788.774,-7.812,-920.410,-432.617,10.742,0
1594888788.778,-8.301,-984.863,-358.398,5.371,0
1594888788.781,-8.301,-974.609,-498.047,-2.930,0
1594888788.785,-8.789,-963.379,-584.473,-6.836,0
1594888788.789,-8.301,-616.211,-237.305,-3.906,0
1594888788.793,-6.836,-330.078,-146.973,-2.930,0
1594888788.797,-4.395,-316.406,-205.566,-5.859,0
1594888788.808,-11.719,-692.383,-354.492,-4.883,0
1594888788.812,-10.742,-929.688,-374.512,3.906,0
1594888788.816,-0.488,-880.371,-327.148,8.789,0
1594888788.820,-0.977,-733.887,-279.297,5.371,0
1594888788.824,-3.906,-621.094,-278.809,6.348,0
1594888788.828,-4.395,-921.875,-624.023,4.883,0
1594888788.832,-0.977,-1000.000,-713.379,12.207,0
1594888788.835,1.953,-764.648,-355.469,16.113,0
1594888788.839,-8.789,-464.355,-223.145,7.324,0
1594888788.843,-4.883,-554.688,-278.809,7.812,0
1594888788.847,-5.371,-701.660,-260.742,5.371,0
1594888788.851,-11.230,-435.059,-185.059,-1.953,0
1594888788.846,-18.066,-432.617,-247.070,-4.395,0
1594888788.850,-25.391,-500.977,-258.789,-4.883,0
1594888788.854,-15.625,-681.152,-349.609,-4.395,0
1594888788.858,-10.254,-898.438,-401.367,-8.301,2
1594888788.862,-18.555,-838.379,-313.965,-20.508,0
1594888788.866,-27.832,-982.422,-494.141,-13.672,0
1594888788.870,-28.809,-1000.000,-466.309,-3.906,0
1594888788.873,-20.020,-982.422,-457.520,-2.930,0
1594888788.877,-19.043,-1000.000,-599.609,-2.441,0
1594888788.881,-30.273,-762.695,-332.031,-8.789,0
1594888788.885,-25.391,-514.648,-228.027,-7.324,0
1594888788.889,-15.625,-478.516,-263.672,-7.324,0
1594888788.900,-6.836,-593.262,-262.207,-7.324,0
1594888788.904,-1.953,-898.926,-345.703,-0.977,0
1594888788.908,-8.789,-939.941,-402.832,-4.395,0
1594888788.912,-5.859,-638.184,-319.824,-15.137,0
1594888788.916,-3.906,-482.422,-192.383,-23.926,0
1594888788.920,-12.695,-809.082,-487.793,-23.438,0
1594888788.924,-17.578,-992.188,-637.695,-18.555,0
1594888788.927,-12.207,-930.176,-343.262,-26.367,0
1594888788.931,-5.371,-762.207,-266.602,-28.320,0
1594888788.935,-12.695,-563.477,-288.086,-14.648,0
1594888788.939,-21.484,-857.910,-432.129,-12.207,0
1594888788.943,-18.555,-875.977,-328.613,-21.484,0
1594888788.940,-15.137,-605.957,-228.516,-19.043,0
1594888788.944,-20.020,-531.738,-246.582,-23.926,0
1594888788.948,-20.508,-781.738,-416.504,-29.785,0
1594888788.952,-16.113,-976.074,-503.418,-28.320,0
1594888788.956,-12.695,-887.695,-351.074,-27.832,0
1594888788.960,-12.695,-916.504,-363.770,-26.855,0
1594888788.964,-17.090,-962.402,-359.863,-24.414,0
1594888788.967,-28.320,-1000.000,-528.320,-20.020,0
1594888788.971,-33.203,-957.520,-552.246,-7.324,0
1594888788.975,-23.926,-740.234,-280.273,-7.324,0
1594888788.979,-11.719,-870.605,-400.391,-28.809,0
1594888788.983,-8.789,-969.238,-441.406,-34.668,0
1594888788.994,-10.742,-919.434,-453.613,-21.484,0
1594888788.998,-2.930,-905.762,-413.086,-20.996,0
1594888789.002,2.441,-785.645,-294.434,-20.996,0
1594888789.006,-3.906,-651.855,-286.621,-32.227,0
1594888789.010,-18.066,-601.562,-290.039,-41.504,0
1594888789.014,-13.672,-869.141,-501.953,-30.273,0
1594888789.018,-6.348,-884.766,-501.465,-34.180,0
1594888789.021,-12.207,-587.891,-270.508,-37.109,0
1594888789.025,-20.508,-553.223,-282.715,-38.574,0
1594888789.029,-16.602,-642.578,-305.664,-41.016,0
1594888789.033,-2.930,-625.977,-257.324,-35.645,0
1594888789.037,-10.742,-478.516,-247.559,-34.180,0
1594888789.035,-23.926,-735.352,-387.207,-34.668,0
1594888789.039,-20.508,-855.957,-336.426,-31.738,0
1594888789.043,-21.973,-826.660,-305.176,-33.691,0
1594888789.047,-27.344,-867.188,-363.281,-33.203,0
1594888789.051,-30.273,-815.430,-357.910,-31.250,0
1594888789.055,-33.203,-976.074,-448.242,-34.668,0
1594888789.059,-28.809,-977.539,-354.004,-38.574,0
1594888789.062,-22.949,-968.750,-466.797,-35.156,0
1594888789.066,-27.344,-999.512,-573.730,-37.109,0
1594888789.070,-26.855,-799.805,-326.172,-40.039,0
1594888789.074,-20.508,-473.633,-212.402,-39.062,0
1594888789.078,-17.090,-476.074,-258.301,-34.668,0
1594888789.088,-27.344,-798.828,-378.906,-32.227,0
1594888789.092,-26.367,-978.027,-378.906,-32.715,0
1594888789.096,-15.137,-921.875,-355.469,-35.645,0
1594888789.100,-20.020,-840.332,-335.449,-39.551,0
1594888789.104,-23.926,-915.039,-334.473,-38.574,0
1594888789.108,-24.414,-1000.000,-579.590,-27.832,0
1594888789.112,-26.855,-1000.000,-713.867,-24.414,0
1594888789.115,-22.461,-668.457,-296.875,-38.086,0
1594888789.119,-16.602,-366.699,-185.547,-42.969,0
1594888789.123,-18.066,-661.133,-396.973,-31.738,0
1594888789.127,-15.625,-839.355,-365.723,-23.926,0
1594888789.131,-10.742,-547.363,-188.965,-26.367,0
1594888789.127,-9.277,-525.879,-258.301,-22.461,0
1594888789.131,-19.531,-760.254,-359.863,-22.461,0
1594888789.135,-30.762,-865.723,-378.906,-16.113,0
1594888789.139,-38.086,-867.676,-338.867,-5.859,0
1594888789.143,-47.852,-625.977,-263.672,-6.836,0
1594888789.147,-55.176,-798.828,-401.367,-2.930,0
1594888789.151,-49.805,-1000.000,-434.570,0.977,0
1594888789.154,-35.645,-996.582,-567.383,3.906,0
1594888789.158,-32.227,-988.281,-573.730,8.789,0
1594888789.162,-34.180,-620.117,-237.305,6.836,0
1594888789.166,-29.785,-566.406,-287.109,6.348,0
1594888789.170,-19.043,-834.473,-386.719,6.348,0
1594888789.182,-12.695,-843.262,-333.984,3.906,0
1594888789.186,-14.648,-933.594,-346.191,1.465,0
1594888789.190,-11.719,-897.949,-381.348,3.418,0
1594888789.194,2.930,-596.680,-275.391,10.254,0
1594888789.198,7.324,-590.820,-272.461,13.184,0
1594888789.202,0.977,-921.875,-589.355,12.207,0
1594888789.206,-9.277,-977.539,-619.629,4.395,0
1594888789.209,-9.766,-813.965,-307.617,1.465,0
1594888789.213,1.465,-615.234,-244.141,1.465,0
1594888789.217,-1.465,-679.199,-295.410,0.000,0
1594888789.221,-5.859,-925.293,-373.535,2.441,0
1594888789.225,-5.859,-715.332,-293.945,1.953,0
1594888789.222,-12.695,-510.742,-250.000,6.348,0
1594888789.226,-12.207,-447.754,-220.703,7.812,0
1594888789.230,-14.160,-724.609,-366.699,7.324,0
1594888789.234,-26.367,-941.406,-455.566,11.719,0
1594888789.238,-24.902,-845.215,-397.949,20.020,0
1594888789.242,-20.996,-972.656,-491.699,20.508,0
1594888789.246,-24.414,-1000.000,-411.133,14.648,0
1594888789.249,-35.156,-979.980,-494.629,7.812,0
1594888789.253,-45.898,-969.727,-564.453,6.836,0
1594888789.257,-45.410,-659.180,-248.047,6.348,0
1594888789.261,-37.598,-460.449,-245.117,5.859,0
1594888789.265,-34.668,-624.023,-354.492,0.000,0
1594888789.277,-32.227,-861.328,-402.344,-3.906,0
1594888789.281,-24.414,-963.379,-375.000,-8.301,0
1594888789.285,-14.160,-735.352,-274.414,-5.859,0
1594888789.289,-7.324,-552.734,-312.500,-4.883,0
1594888789.293,-16.602,-664.062,-319.824,-12.695,0
1594888789.297,-17.578,-922.363,-517.090,-7.812,0
1594888789.301,-8.301,-998.535,-550.781,-1.953,0
1594888789.304,-7.324,-618.164,-209.473,-9.277,0
1594888789.308,-9.766,-506.836,-257.324,-13.672,0
1594888789.312,-13.184,-909.180,-416.504,-13.672,0
1594888789.316,-28.809,-914.062,-348.633,-20.508,0
1594888789.320,-36.133,-617.188,-254.395,-27.344,0
1594888789.315,-41.016,-671.387,-323.730,-22.461,0
1594888789.319,-44.922,-759.766,-344.238,-20.996,0
1594888789.323,-34.668,-850.098,-378.906,-19.043,0
1594888789.327,-26.855,-973.633,-400.391,-14.160,0
1594888789.331,-33.203,-904.297,-362.793,-14.648,0
1594888789.335,-42.480,-990.234,-437.500,-15.137,0
1594888789.339,-42.969,-917.969,-318.848,-19.043,0
1594888789.342,-41.504,-835.938,-392.578,-20.508,0
1594888789.346,-36.133,-1000.000,-594.727,-11.719,0
1594888789.350,-32.227,-805.664,-343.262,-9.766,0
1594888789.354,-32.227,-594.727,-286.133,-14.160,0
1594888789.358,-25.879,-520.996,-289.551,-10.742,0
1594888789.369,-11.719,-688.965,-328.125,1.465,0
1594888789.373,-13.672,-975.586,-397.461,2.441,0
1594888789.377,-13.672,-883.789,-357.422,-2.930,0
1594888789.381,-12.207,-719.727,-282.715,-9.766,0
1594888789.385,-21.973,-771.484,-318.848,-15.137,0
1594888789.389,-24.902,-960.449,-636.230,-5.859,0
1594888789.393,-18.555,-1000.000,-640.137,-0.977,0
1594888789.396,-12.695,-893.555,-322.266,-8.789,0
1594888789.400,-9.277,-629.883,-249.512,-11.230,0
1594888789.404,-10.742,-604.492,-320.312,-9.766,0
1594888789.408,-16.602,-929.688,-464.844,-15.137,0
1594888789.412,-20.508,-736.328,-306.152,-15.137,0
1594888789.409,-16.113,-478.027,-208.984,-14.648,0
1594888789.413,-18.555,-625.000,-290.039,-18.555,0
1594888789.417,-27.832,-798.340,-324.219,-18.555,0
1594888789.421,-27.832,-890.137,-363.281,-18.555,0
1594888789.425,-28.809,-638.184,-274.902,-17.578,0
1594888789.429,-31.250,-733.398,-335.938,-12.207,0
1594888789.433,-35.645,-923.340,-353.027,-11.230,0
1594888789.436,-29.297,-918.457,-469.238,-3.906,0
1594888789.440,-27.344,-1000.000,-587.891,-4.395,0
1594888789.444,-31.250,-793.457,-314.941,-20.020,0
1594888789.448,-25.391,-624.512,-329.102,-20.508,0
1594888789.452,-24.414,-706.055,-337.402,-17.090,0
1594888789.463,-18.066,-836.914,-410.156,-22.949,0
1594888789.467,-12.695,-937.500,-450.195,-28.809,0
1594888789.471,-20.508,-818.359,-308.594,-27.344,0
1594888789.475,-26.367,-756.348,-327.637,-28.320,0
1594888789.479,-16.602,-745.605,-319.824,-19.043,0
1594888789.483,0.977,-953.125,-541.992,-6.348,0
1594888789.487,-3.906,-991.211,-568.848,-5.859,0
1594888789.490,-11.719,-741.699,-321.289,-20.020,0
1594888789.494,-4.883,-521.484,-271.973,-24.902,0
1594888789.498,-10.742,-578.613,-290.527,-25.391,0
1594888789.502,-16.602,-762.207,-311.035,-27.832,0
1594888789.506,-20.996,-900.391,-386.719,-24.414,0
1594888789.504,-22.461,-924.316,-384.277,-25.879,0
1594888789.508,-18.555,-583.984,-221.191,-27.344,0
1594888789.512,-23.438,-597.656,-334.961,-29.785,0
1594888789.516,-28.809,-889.648,-470.215,-28.320,0
1594888789.520,-32.715,-880.371,-382.324,-25.879,0
1594888789.524,-36.133,-945.312,-420.898,-27.344,0
1594888789.528,-37.598,-993.164,-399.902,-31.738,0
1594888789.531,-31.738,-995.605,-541.016,-29.297,0
1594888789.535,-26.855,-995.605,-580.566,-23.438,0
1594888789.539,-27.832,-757.812,-297.363,-25.879,0
1594888789.543,-24.414,-492.676,-221.680,-18.066,0
1594888789.547,-16.602,-482.422,-257.812,-15.137,0
1594888789.557,-24.902,-803.223,-397.461,-26.855,0
1594888789.561,-26.855,-973.145,-392.090,-28.320,0
1594888789.565,-17.578,-954.590,-348.145,-20.996,0
1594888789.569,-24.414,-918.457,-364.746,-25.391,0
1594888789.573,-26.855,-714.355,-319.336,-28.809,0
1594888789.577,-16.113,-871.094,-575.684,-22.461,0
1594888789.581,-14.160,-1000.000,-680.664,-11.230,0
1594888789.584,-19.043,-803.711,-355.957,-11.719,0
1594888789.588,-16.602,-419.922,-181.641,-28.809,0
1594888789.592,-15.625,-579.102,-291.992,-34.180,0
1594888789.596,-11.719,-842.285,-353.516,-27.344,0
1594888789.600,-7.324,-616.699,-244.141,-26.855,0
1594888789.596,-8.789,-484.375,-238.281,-30.762,0
1594888789.600,-11.719,-577.637,-299.805,-20.996,0
1594888789.604,-9.766,-885.254,-438.965,-19.043,0
1594888789.608,-3.906,-881.348,-427.734,-28.809,0
1594888789.612,-1.465,-703.613,-298.828,-24.902,0
1594888789.616,-11.230,-928.223,-442.383,-18.066,0
1594888789.620,-20.020,-979.492,-398.926,-17.578,0
1594888789.623,-21.484,-910.645,-394.531,-12.695,0
1594888789.627,-20.020,-1000.000,-669.922,-0.977,0
1594888789.631,-27.344,-941.895,-515.625,-8.301,0
1594888789.635,-34.180,-756.348,-335.938,-12.207,0
1594888789.639,-29.785,-562.500,-282.715,-1.953,0
1594888789.650,-28.320,-593.262,-234.863,-8.301,0
1594888789.654,-35.645,-890.625,-349.609,-7.812,0
1594888789.658,-41.016,-963.379,-411.133,-7.324,0
1594888789.662,-41.992,-799.316,-337.402,-13.672,0
1594888789.666,-38.086,-654.785,-259.277,-10.742,0
1594888789.670,-31.250,-900.879,-584.473,-4.395,0
1594888789.674,-33.691,-979.980,-599.121,-0.977,0
1594888789.677,-28.320,-841.797,-349.609,1.953,0
1594888789.681,-13.184,-855.957,-363.281,-0.977,0
1594888789.685,-13.672,-725.586,-268.555,-10.254,0
1594888789.689,-20.020,-836.914,-354.980,-11.230,0
1594888789.693,-17.578,-795.898,-316.406,-10.254,0
1594888789.690,-14.160,-727.539,-321.777,-19.531,1
1594888789.694,-10.254,-729.004,-328.613,-22.949,0
1594888789.698,-14.648,-850.586,-414.551,-23.926,0
1594888789.702,-19.043,-898.926,-396.973,-27.832,0
1594888789.706,-10.254,-656.738,-250.977,-32.715,0
1594888789.710,-10.254,-769.043,-336.914,-37.598,0
1594888789.714,-28.809,-916.504,-326.172,-39.062,0
1594888789.717,-35.645,-1000.000,-521.484,-37.109,0
1594888789.721,-23.926,-948.730,-580.078,-29.297,0
1594888789.725,-20.508,-724.121,-297.363,-36.133,0
1594888789.729,-20.996,-739.258,-359.863,-39.062,0
1594888789.733,-26.855,-896.484,-402.344,-33.691,0
1594888789.744,-34.180,-969.727,-432.617,-34.668,0
1594888789.748,-27.344,-982.422,-417.480,-33.691,0
1594888789.752,-27.832,-729.980,-262.207,-40.527,0
1594888789.756,-36.133,-531.250,-272.461,-40.527,0
1594888789.760,-37.598,-455.078,-232.422,-39.551,0
1594888789.764,-38.086,-758.789,-444.336,-33.691,0
1594888789.768,-46.875,-977.539,-508.301,-38.574,0
1594888789.771,-54.199,-641.113,-260.254,-51.270,0
1594888789.775,-51.758,-600.586,-319.336,-48.828,0
1594888789.779,-41.016,-819.824,-381.836,-40.527,0
1594888789.783,-41.992,-836.426,-343.750,-34.668,0
1594888789.787,-46.875,-639.160,-286.621,-38.574,0
1594888789.785,-45.410,-708.008,-344.238,-42.969,0
1594888789.789,-41.016,-938.477,-403.809,-42.480,0
1594888789.793,-33.203,-963.379,-390.137,-41.504,0
1594888789.797,-30.273,-859.863,-365.723,-48.340,0
1594888789.801,-35.156,-791.504,-371.094,-52.246,0
1594888789.805,-22.949,-969.727,-445.801,-53.223,0
1594888789.809,-18.066,-824.707,-275.879,-59.082,0
1594888789.812,-27.344,-717.285,-373.047,-63.965,0
1594888789.816,-29.297,-933.594,-563.477,-61.523,0
1594888789.820,-24.414,-679.199,-280.273,-57.617,0
1594888789.824,-19.043,-606.445,-269.531,-57.617,0
1594888789.828,-19.043,-654.297,-281.738,-64.941,0
1594888789.838,-23.438,-770.996,-325.195,-71.777,0
1594888789.842,-35.645,-997.070,-436.523,-73.730,0
1594888789.846,-30.762,-916.504,-380.371,-74.219,0
1594888789.850,-21.484,-677.246,-288.086,-71.289,0
1594888789.854,-26.367,-679.199,-290.039,-65.430,0
1594888789.858,-38.574,-903.809,-541.016,-66.895,0
1594888789.862,-40.039,-1000.000,-708.984,-63.965,0
1594888789.865,-21.973,-832.520,-418.457,-55.664,0
1594888789.869,-4.883,-486.816,-239.746,-52.246,0
1594888789.873,-9.766,-562.988,-330.078,-48.340,0
1594888789.877,-20.020,-915.527,-413.086,-38.574,0
1594888789.881,-17.578,-842.773,-306.152,-29.785,0
1594888789.877,-16.113,-758.301,-316.895,-29.785,0
1594888789.881,-30.273,-782.227,-364.258,-31.738,0
1594888789.885,-46.387,-726.074,-337.402,-30.762,0
1594888789.889,-41.992,-788.574,-356.445,-38.574,0
1594888789.893,-32.227,-626.953,-320.801,-45.898,0
1594888789.897,-28.320,-850.098,-441.406,-37.109,0
1594888789.901,-26.855,-984.863,-386.230,-28.809,0
1594888789.904,-21.484,-870.605,-379.395,-26.367,0
1594888789.908,-17.578,-997.070,-537.598,-21.484,0
1594888789.912,-20.020,-768.555,-315.918,-24.414,0
1594888789.916,-20.508,-540.527,-254.883,-21.973,0
1594888789.920,-11.230,-666.504,-337.402,-9.766,0
1594888789.932,-8.789,-733.887,-276.855,-16.113,0
1594888789.936,-13.672,-790.039,-261.719,-31.250,0
1594888789.940,-16.113,-873.047,-393.066,-31.250,0
1594888789.944,-10.742,-706.055,-336.914,-28.809,0
1594888789.948,-11.719,-621.582,-254.395,-33.203,0
1594888789.952,-19.043,-910.645,-565.918,-41.016,0
1594888789.956,-15.625,-957.031,-599.121,-34.668,0
1594888789.959,-15.137,-730.957,-286.133,-34.180,0
1594888789.963,-12.695,-620.117,-252.930,-32.227,0
1594888789.967,-6.836,-636.719,-291.016,-27.344,0
1594888789.971,-12.207,-876.953,-381.836,-29.297,0
1594888789.975,-27.832,-782.715,-333.008,-29.297,0
1594888789.972,-25.391,-671.875,-311.035,-20.996,0
1594888789.976,-12.207,-649.414,-262.695,-11.230,0
1594888789.980,-13.672,-782.715,-410.645,-15.625,0
1594888789.984,-16.602,-966.797,-521.484,-12.207,0
1594888789.988,-19.531,-812.012,-358.887,-12.207,0
1594888789.992,-29.785,-925.293,-413.574,-11.719,0
1594888789.996,-35.645,-1000.000,-395.996,-1.953,0
1594888789.999,-35.645,-997.070,-554.199,1.953,0
1594888790.003,-36.621,-974.609,-598.633,5.371,0
1594888790.007,-29.297,-798.340,-288.086,10.254,0
1594888790.011,-24.902,-619.141,-266.113,13.672,0
1594888790.015,-28.320,-581.055,-318.848,11.719,0
1594888790.027,-28.809,-851.562,-407.227,5.859,0
1594888790.031,-25.879,-986.816,-396.484,6.348,0
1594888790.035,-19.531,-915.527,-370.605,0.977,0
1594888790.039,-24.414,-963.379,-414.062,-5.859,0
1594888790.043,-27.344,-986.816,-423.340,-3.418,0
1594888790.047,-15.625,-996.582,-598.633,1.465,0
1594888790.051,-5.371,-1000.000,-688.477,8.301,0
1594888790.054,-4.883,-873.047,-457.031,2.441,0
1594888790.058,-13.672,-743.164,-354.004,4.883,0
1594888790.062,-20.996,-902.344,-436.035,20.508,0
1594888790.066,-22.949,-906.250,-390.625,23.926,0
1594888790.070,-23.438,-690.430,-305.176,25.391,0
1594888790.065,-29.785,-781.250,-379.395,26.367,0
1594888790.069,-31.250,-846.680,-360.352,28.809,0
1594888790.073,-33.691,-895.020,-372.559,30.762,0
1594888790.077,-39.551,-985.352,-400.879,33.691,0
1594888790.081,-31.738,-947.754,-363.770,42.969,0
1594888790.085,-26.855,-1000.000,-493.164,45.898,0
1594888790.089,-23.438,-937.012,-387.695,38.574,0
1594888790.092,-15.137,-900.879,-449.707,45.410,0
1594888790.096,-21.973,-978.516,-618.652,42.969,0
1594888790.100,-24.902,-918.457,-415.039,30.273,0
1594888790.104,-12.695,-875.977,-389.648,30.762,0
1594888790.108,-9.766,-663.086,-293.945,33.203,0
1594888790.119,-17.090,-773.438,-364.258,18.555,0
1594888790.123,-16.113,-1000.000,-487.305,18.066,0
1594888790.127,-10.254,-929.199,-355.957,30.273,0
1594888790.131,-15.137,-755.859,-306.152,20.020,0
1594888790.135,-12.695,-759.277,-326.660,4.883,0
1594888790.139,-15.625,-913.086,-604.492,10.742,0
1594888790.143,-27.832,-1000.000,-751.953,16.602,0
1594888790.146,-25.391,-902.832,-381.836,9.277,0
1594888790.150,-14.160,-441.406,-205.566,9.277,0
1594888790.154,-11.719,-486.328,-339.844,18.555,0
1594888790.158,-13.184,-970.703,-508.301,35.645,0
1594888790.162,-0.977,-815.430,-333.496,37.598,0
1594888790.159,5.859,-423.828,-172.363,39.551,0
1594888790.163,-5.859,-356.934,-208.008,49.316,0
1594888790.167,-14.648,-710.449,-373.047,44.434,0
1594888790.171,-21.484,-924.316,-438.965,37.109,0
1594888790.175,-21.484,-682.617,-301.758,41.992,0
1594888790.179,-19.531,-849.121,-431.152,50.293,0
1594888790.183,-26.855,-1000.000,-450.195,57.129,0
1594888790.186,-29.297,-966.309,-492.676,64.453,0
1594888790.190,-26.367,-972.168,-552.734,57.617,0
1594888790.194,-21.484,-920.410,-338.379,42.480,0
1594888790.198,-18.066,-732.910,-287.109,35.156,0
1594888790.202,-23.926,-620.605,-284.668,35.156,0
1594888790.213,-23.926,-881.348,-444.824,33.691,0
1594888790.217,-23.926,-1000.000,-529.785,27.344,0
1594888790.221,-21.484,-905.273,-392.578,20.508,0
1594888790.225,-15.137,-738.281,-336.914,22.461,0
1594888790.229,-12.695,-719.238,-320.801,25.391,0
1594888790.233,-13.672,-892.090,-506.836,25.391,0
1594888790.237,-16.602,-1000.000,-620.605,20.020,0
1594888790.240,-19.531,-937.500,-437.988,16.113,0
1594888790.244,-14.648,-684.570,-286.133,17.578,0
1594888790.248,-11.719,-570.312,-268.066,19.531,0
1594888790.252,-22.461,-851.074,-417.969,22.461,0
1594888790.256,-29.785,-937.012,-395.508,29.297,0
1594888790.272,-27.344,-977.051,-384.277,32.227,0
1594888790.276,-17.578,-726.562,-274.414,29.785,0
1594888790.280,-11.230,-605.957,-296.387,27.344,0
1594888790.284,-16.602,-900.391,-444.336,27.344,0
1594888790.288,-12.695,-796.387,-343.262,36.621,0
1594888790.292,-1.465,-850.098,-369.629,41.504,0
1594888790.296,-4.395,-903.809,-312.988,41.016,0
1594888790.299,-11.719,-916.992,-462.402,49.805,0
1594888790.303,-23.926,-983.887,-580.566,53.223,0
1594888790.307,-27.344,-818.848,-309.570,49.316,0
1594888790.311,-14.648,-680.176,-270.508,54.199,0
1594888790.315,-16.602,-578.125,-293.457,44.434,0
1594888790.307,-11.719,-758.301,-359.863,43.945,0
1594888790.311,-8.789,-988.770,-411.133,46.875,0
1594888790.315,-15.625,-940.430,-404.785,42.969,0
1594888790.319,-14.648,-944.824,-382.324,48.340,0
1594888790.323,-28.809,-846.680,-365.234,44.922,0
1594888790.327,-30.762,-880.371,-440.430,46.387,0
1594888790.331,-27.832,-950.684,-376.953,53.223,0
1594888790.334,-43.457,-750.977,-265.625,55.176,0
1594888790.338,-50.781,-704.590,-330.566,48.340,0
1594888790.342,-43.945,-848.633,-385.742,47.852,0
1594888790.346,-36.621,-1000.000,-569.824,51.758,0
1594888790.350,-27.832,-964.355,-540.527,42.480,0
1594888790.346,-19.531,-840.820,-333.496,32.715,0
1594888790.350,-18.066,-808.105,-355.957,20.508,0
1594888790.354,-19.043,-927.246,-415.527,4.395,0
1594888790.358,-11.230,-854.004,-344.727,0.000,0
1594888790.362,-14.648,-791.992,-318.848,4.395,0
1594888790.366,-20.996,-1000.000,-500.977,5.371,0
1594888790.370,-18.555,-969.238,-373.535,3.906,0
1594888790.373,-17.090,-906.250,-361.816,4.395,0
1594888790.377,-19.043,-1000.000,-587.402,14.160,0
1594888790.381,-17.578,-899.414,-466.797,13.184,0
1594888790.385,-15.137,-773.926,-334.473,16.113,0
1594888790.389,-18.555,-643.066,-305.176,23.926,0
1594888790.400,-11.230,-715.332,-319.824,24.902,0
1594888790.404,-12.207,-977.051,-398.438,35.156,0
1594888790.408,-22.461,-937.988,-399.414,38.086,0
1594888790.412,-23.438,-668.457,-276.367,38.574,0
1594888790.416,-18.555,-552.246,-227.051,36.621,0
1594888790.420,-22.949,-889.160,-533.691,30.762,0
1594888790.424,-34.180,-958.984,-559.570,29.785,0
1594888790.427,-32.715,-634.277,-269.531,33.203,1
1594888790.431,-29.297,-660.156,-303.223,33.691,0
1594888790.435,-28.809,-886.230,-378.906,36.621,0
1594888790.439,-30.762,-907.715,-379.883,40.527,0
1594888790.443,-27.344,-654.785,-282.715,38.086,0
1594888790.440,-22.461,-452.148,-245.117,32.715,0
1594888790.444,-22.461,-479.492,-247.559,36.621,0
1594888790.448,-20.996,-728.516,-354.004,42.480,0
1594888790.452,-24.414,-981.934,-493.164,42.969,0
1594888790.456,-26.855,-809.082,-317.383,47.363,0
1594888790.460,-22.949,-746.094,-292.969,49.805,0
1594888790.464,-24.414,-916.016,-375.000,51.270,0
1594888790.467,-27.344,-1000.000,-511.230,56.152,0
1594888790.471,-24.414,-946.289,-527.344,62.012,0
1594888790.475,-19.043,-625.977,-245.117,65.918,0
1594888790.479,-18.555,-431.641,-240.723,65.918,0
1594888790.483,-22.949,-717.773,-356.934,66.895,0
1594888790.494,-23.438,-1000.000,-492.188,64.941,0
1594888790.498,-14.648,-978.516,-437.012,55.664,0
1594888790.502,-13.184,-680.176,-246.094,62.012,0
1594888790.506,-20.996,-707.520,-367.676,72.754,0
1594888790.510,-21.973,-782.715,-333.496,77.637,0
1594888790.514,-18.555,-843.262,-474.121,81.055,0
1594888790.518,-21.973,-976.074,-545.410,78.125,0
1594888790.521,-23.438,-699.219,-284.180,79.102,0
1594888790.525,-20.508,-695.312,-363.281,83.008,0
1594888790.529,-20.508,-875.488,-416.504,83.984,0
1594888790.533,-13.184,-888.672,-387.695,94.238,0
1594888790.537,-17.090,-765.137,-338.379,95.703,0
1594888790.534,-26.367,-818.359,-369.629,82.520,0
1594888790.538,-24.414,-779.297,-337.402,72.266,0
1594888790.542,-31.738,-841.309,-397.461,61.035,0
1594888790.546,-41.504,-952.637,-443.359,56.641,0
1594888790.550,-34.180,-760.742,-349.121,54.199,0
1594888790.554,-25.391,-864.258,-402.832,50.781,0
1594888790.558,-18.555,-942.383,-338.867,61.035,0
1594888790.561,-19.531,-934.082,-483.887,69.336,0
1594888790.565,-26.367,-967.773,-573.730,61.035,0
1594888790.569,-25.391,-875.977,-336.426,53.711,0
1594888790.573,-23.438,-654.785,-264.648,46.387,0
1594888790.577,-21.484,-491.699,-251.465,43.457,0
1594888790.588,-21.973,-731.445,-307.129,41.992,0
1594888790.592,-22.461,-991.699,-466.797,35.156,0
1594888790.596,-20.508,-943.359,-432.129,28.809,0
1594888790.600,-12.207,-667.480,-243.652,25.391,0
1594888790.604,-7.812,-767.090,-348.145,32.715,0
1594888790.608,-13.184,-1000.000,-625.488,43.457,0
1594888790.612,-20.020,-1000.000,-628.418,53.223,0
1594888790.615,-21.484,-861.328,-323.242,57.617,0
1594888790.619,-21.484,-614.746,-247.559,55.664,0
1594888790.623,-27.832,-812.500,-387.695,59.570,0
1594888790.627,-29.297,-1000.000,-473.633,68.359,0
1594888790.631,-26.367,-748.047,-288.574,72.266,0
1594888790.627,-27.344,-582.520,-251.465,68.848,0
1594888790.631,-27.344,-540.039,-290.527,70.801,0
1594888790.635,-31.738,-710.938,-367.676,73.730,0
1594888790.639,-32.227,-916.016,-398.926,67.383,0
1594888790.643,-32.227,-714.355,-318.848,62.500,0
1594888790.647,-37.598,-882.324,-458.984,67.871,0
1594888790.651,-33.691,-987.305,-390.625,75.195,0
1594888790.654,-25.391,-910.645,-431.152,78.125,0
1594888790.658,-25.391,-1000.000,-598.633,76.660,0
1594888790.662,-31.250,-819.336,-349.121,65.918,0
1594888790.666,-32.715,-726.562,-329.102,67.383,0
1594888790.670,-26.855,-803.223,-401.855,73.730,0
1594888790.682,-17.090,-816.895,-337.402,69.336,0
1594888790.686,-19.043,-948.242,-339.844,72.266,0
1594888790.690,-31.250,-896.484,-393.555,72.266,0
1594888790.694,-31.738,-710.449,-368.164,71.289,0
1594888790.698,-21.484,-749.023,-328.125,73.242,0
1594888790.702,-15.137,-964.844,-573.730,66.895,0
1594888790.706,-19.043,-957.520,-579.590,55.176,0
1594888790.709,-20.508,-713.867,-272.949,58.105,0
1594888790.713,-11.230,-536.133,-234.375,62.012,0
1594888790.717,-7.324,-547.363,-276.855,53.223,0
1594888790.721,-15.625,-863.770,-414.551,56.641,0
1594888790.725,-26.855,-1000.000,-427.246,61.035,0
1594888790.722,-29.785,-856.445,-377.930,54.688,0
1594888790.726,-21.973,-567.383,-244.629,52.246,0
1594888790.730,-18.555,-574.219,-308.105,47.852,0
1594888790.734,-23.926,-766.602,-407.227,54.688,0
1594888790.738,-20.996,-325.195,-32.715,59.082,0
1594888790.742,-14.648,-309.570,-67.871,55.664,0
1594888790.746,-10.254,-554.199,-233.398,61.523,0
1594888790.749,-18.555,-779.297,-423.340,62.012,0
1594888790.753,-43.457,-941.406,-524.414,55.664,0
1594888790.757,-36.133,-417.480,-50.781,58.105,0
1594888790.761,-24.902,-125.977,45.898,64.453,0
1594888790.765,-33.203,-386.719,-238.770,63.965,0
1594888790.777,-28.809,-798.828,-403.320,68.359,0
1594888790.781,-22.461,-884.277,-320.312,70.801,0
1594888790.785,-23.926,-715.332,-250.000,58.105,0
1594888790.789,-26.367,-561.035,-247.559,56.152,0
1594888790.793,-21.973,-492.676,-246.582,55.176,0
1594888790.797,-19.043,-832.520,-473.145,49.316,0
1594888790.801,-17.090,-1000.000,-627.930,59.082,0
1594888790.804,-13.184,-788.574,-369.141,54.688,0
1594888790.808,-18.555,-474.121,-234.863,38.086,0
1594888790.812,-25.879,-581.055,-331.055,45.410,0
1594888790.816,-23.438,-749.023,-318.359,55.664,0
1594888790.820,-28.320,-545.898,-240.234,55.176,0
1594888790.815,-36.133,-381.836,-246.582,55.664,0
1594888790.819,-32.227,-560.547,-298.828,57.617,0
1594888790.823,-24.414,-770.508,-312.988,59.082,0
1594888790.827,-23.926,-814.941,-329.590,56.641,0
1594888790.831,-32.227,-847.656,-370.117,53.711,0
1594888790.835,-31.738,-998.047,-496.094,56.152,0
1594888790.839,-25.879,-1000.000,-448.242,59.570,0
1594888790.842,-20.996,-991.699,-551.758,55.176,0
1594888790.846,-20.020,-1000.000,-770.020,53.223,0
1594888790.850,-26.855,-959.473,-498.047,47.852,0
1594888790.854,-30.762,-874.512,-361.816,40.527,0
1594888790.858,-21.973,-812.012,-367.188,41.504,0
1594888790.869,-22.949,-871.094,-338.867,47.363,0
1594888790.873,-34.668,-999.023,-457.520,48.340,0
1594888790.877,-39.551,-983.398,-479.980,48.828,0
1594888790.881,-37.109,-907.227,-357.422,53.223,0
1594888790.885,-34.180,-780.273,-294.434,55.664,0
1594888790.889,-39.551,-896.484,-587.891,60.059,0
1594888790.893,-40.527,-996.582,-696.289,59.570,0
1594888790.896,-32.715,-958.496,-397.461,54.199,0
1594888790.900,-24.414,-833.496,-352.539,59.082,0
1594888790.904,-20.996,-801.758,-374.023,64.453,0
1594888790.908,-20.020,-982.910,-432.129,65.430,0
