timestamps,TP9,AF7,AF8,TP10,Marker0
1594888945.088,-59.082,-22.461,1.953,-34.668,0
1594888945.092,-46.875,-583.008,-278.809,-26.855,0
1594888945.096,-36.621,-360.352,-62.500,-27.344,0
1594888945.100,-37.109,-25.879,-13.672,-28.320,0
1594888945.104,-42.969,-129.395,-185.059,-31.738,0
1594888945.108,-37.598,-315.430,-205.078,-41.992,0
1594888945.112,-32.227,-854.980,-404.785,-47.363,0
1594888945.115,-36.133,-489.746,-244.141,-52.246,0
1594888945.119,-31.738,-9.277,-62.012,-45.898,0
1594888945.123,-20.020,-122.559,-171.875,-35.156,0
1594888945.127,-20.996,-392.090,-289.062,-40.527,0
1594888945.131,-27.832,-316.895,-148.438,-39.551,0
1594888945.127,-32.227,-97.656,-40.527,-33.691,0
1594888945.131,-38.086,-278.320,-157.715,-31.250,0
1594888945.135,-36.621,0.000,44.922,-29.785,0
1594888945.139,-33.691,-88.867,-20.508,-33.203,0
1594888945.143,-29.785,-164.551,-69.824,-43.457,0
1594888945.147,-27.344,-99.609,-30.273,-43.457,0
1594888945.151,-33.691,-96.680,-2.930,-40.039,0
1594888945.154,-35.156,495.605,223.145,-42.969,0
1594888945.158,-36.133,-41.992,-108.887,-39.551,0
1594888945.162,-43.945,-732.910,-250.000,-31.250,0
1594888945.166,-39.551,-56.641,89.355,-25.879,0
1594888945.170,-37.109,466.797,200.684,-28.320,0
1594888945.182,-34.180,363.281,112.305,-27.344,0
1594888945.186,-37.109,-333.984,-221.680,-33.691,0
1594888945.190,-35.645,-172.363,-62.012,-41.992,0
1594888945.194,-21.973,-32.715,56.641,-50.781,0
1594888945.198,-22.949,-124.023,3.418,-56.152,0
1594888945.202,-29.785,-345.703,-238.770,-49.805,0
1594888945.206,-35.156,-919.434,-537.598,-47.363,0
1594888945.209,-34.668,-486.816,-160.156,-49.805,0
1594888945.213,-32.227,122.070,141.602,-48.828,0
1594888945.217,-41.016,127.441,74.707,-39.062,0
1594888945.221,-40.527,-167.480,-108.398,-34.668,0
1594888945.225,-34.668,-195.312,-104.492,-44.434,0
1594888945.219,-42.969,127.441,113.281,-45.898,0
1594888945.223,-46.875,74.707,26.855,-38.574,0
1594888945.227,-44.922,40.039,-4.395,-35.645,0
1594888945.231,-44.434,-229.004,-174.805,-34.180,0
1594888945.235,-41.992,-287.109,-134.277,-50.781,0
1594888945.239,-39.551,-234.375,-17.578,-60.547,0
1594888945.243,-39.062,-518.066,-252.930,-51.270,0
1594888945.246,-41.992,-588.379,-294.434,-45.410,0
1594888945.250,-36.133,-741.211,-398.926,-41.504,0
1594888945.254,-27.344,-988.281,-531.250,-40.039,0
1594888945.258,-27.832,-533.203,-277.344,-39.062,0
1594888945.262,-29.297,-1.953,-42.480,-38.574,0
1594888945.276,-28.809,100.586,38.086,-31.250,0
1594888945.280,-22.461,-65.430,-13.184,-25.391,0
1594888945.284,-23.926,-12.695,21.973,-37.109,0
1594888945.288,-28.320,-70.312,-99.609,-46.875,0
1594888945.292,-17.090,-30.273,-49.805,-42.480,0
1594888945.296,-20.996,-159.668,26.367,-45.410,0
1594888945.300,-32.715,-781.738,-334.473,-42.969,0
1594888945.303,-29.785,-393.555,-157.227,-42.480,0
1594888945.307,-22.949,-52.246,-24.902,-42.480,0
1594888945.311,-21.973,-262.695,-186.035,-38.574,0
1594888945.315,-28.809,-219.238,-131.348,-46.387,0
1594888945.319,-38.086,-104.004,-36.133,-46.387,0
1594888945.313,-40.039,248.047,101.562,-41.992,0
1594888945.317,-43.945,288.086,111.328,-51.270,0
1594888945.321,-35.645,276.855,127.930,-58.105,0
1594888945.325,-34.180,-40.039,-64.941,-48.340,0
1594888945.329,-43.457,-77.637,-67.383,-42.480,0
1594888945.333,-36.621,27.832,49.316,-42.969,0
1594888945.337,-33.203,-132.812,-5.859,-37.109,0
1594888945.340,-32.227,4.395,6.348,-29.297,0
1594888945.344,-29.297,-587.402,-413.574,-28.809,0
1594888945.348,-31.250,-914.551,-498.535,-29.297,0
1594888945.352,-28.320,-125.977,-37.598,-30.273,0
1594888945.356,-27.832,181.641,71.289,-30.762,0
1594888945.369,-38.574,-181.152,-159.668,-29.297,0
1594888945.373,-36.621,-684.570,-376.465,-23.926,0
1594888945.377,-23.926,-203.613,-11.719,-30.273,0
1594888945.381,-17.090,200.684,122.070,-36.621,0
1594888945.385,-30.273,-60.059,-78.125,-41.504,0
1594888945.389,-41.504,-391.113,-268.555,-44.922,0
1594888945.393,-35.645,-826.172,-378.418,-31.738,0
1594888945.396,-36.133,-222.656,2.930,-31.250,0
1594888945.400,-50.781,128.418,56.641,-38.086,0
1594888945.404,-54.199,-2.441,-52.246,-40.527,0
1594888945.408,-43.457,-35.645,0.977,-46.387,0
1594888945.412,-35.645,-24.414,57.617,-49.805,0
1594888945.407,-27.344,79.590,39.062,-45.898,0
1594888945.411,-24.902,31.738,35.156,-44.922,0
1594888945.415,-31.250,-33.691,28.809,-43.945,0
1594888945.419,-32.715,-343.262,-149.414,-42.480,0
1594888945.423,-30.762,-262.695,-95.703,-39.551,0
1594888945.427,-35.645,-240.723,-167.969,-41.992,0
1594888945.431,-47.363,-458.008,-258.789,-49.805,0
1594888945.434,-41.992,27.832,46.875,-46.875,0
1594888945.438,-37.109,-323.242,-203.125,-43.945,0
1594888945.442,-41.504,-859.375,-437.988,-39.551,0
1594888945.446,-37.598,-258.301,-104.004,-35.156,0
1594888945.450,-31.738,167.480,125.488,-27.344,0
1594888945.463,-25.391,-12.207,41.992,-22.949,0
1594888945.467,-24.902,-613.770,-318.359,-25.391,0
1594888945.471,-25.391,-329.102,-179.688,-25.391,0
1594888945.475,-29.785,14.160,57.617,-20.996,0
1594888945.479,-35.156,44.922,108.887,-25.879,0
1594888945.483,-34.180,-262.207,-132.324,-29.297,0
1594888945.487,-34.180,-896.973,-518.555,-20.996,0
1594888945.490,-41.504,-526.855,-253.906,-16.602,0
1594888945.494,-51.758,152.832,112.305,-24.414,0
1594888945.498,-48.828,206.055,104.980,-45.410,0
1594888945.502,-40.527,-380.371,-207.031,-53.711,0
1594888945.506,-33.203,-597.656,-189.941,-43.945,0
1594888945.500,-31.738,-109.375,53.711,-47.363,0
1594888945.504,-33.691,35.645,32.715,-54.199,0
1594888945.508,-29.297,2.441,16.113,-46.875,0
1594888945.512,-26.855,-319.824,-223.633,-41.016,0
1594888945.516,-27.344,-182.617,-108.398,-37.109,0
1594888945.520,-27.832,-52.246,13.184,-35.156,0
1594888945.524,-35.645,-178.711,-115.234,-39.551,0
1594888945.527,-38.574,-64.941,-104.980,-44.434,0
1594888945.531,-32.227,-612.305,-364.746,-35.156,0
1594888945.535,-30.762,-916.992,-412.109,-28.809,0
1594888945.539,-32.715,-310.547,-138.184,-40.039,0
1594888945.543,-48.828,131.348,35.645,-40.039,2
1594888945.557,-62.500,52.734,-2.441,-34.668,0
1594888945.561,-52.246,-519.531,-277.344,-32.227,0
1594888945.565,-43.945,-256.836,-53.711,-40.527,0
1594888945.569,-40.527,74.219,32.715,-43.457,0
1594888945.573,-40.039,-49.316,-153.320,-33.691,0
1594888945.577,-40.039,-239.258,-225.098,-29.297,0
1594888945.581,-40.039,-812.500,-395.020,-28.320,0
1594888945.584,-40.039,-305.664,-45.410,-26.855,0
1594888945.588,-40.039,155.762,93.750,-22.949,0
1594888945.592,-34.180,55.176,16.113,-19.043,0
1594888945.596,-35.156,14.160,19.043,-19.043,0
1594888945.600,-45.898,-245.605,-188.965,-19.043,0
1594888945.596,-59.570,-145.020,-157.715,-22.949,0
1594888945.600,-55.176,20.508,-23.926,-29.785,0
1594888945.604,-41.016,122.070,63.477,-32.715,0
1594888945.608,-40.527,-261.719,-139.160,-32.715,0
1594888945.612,-44.434,-504.883,-257.812,-38.086,0
1594888945.616,-41.504,-378.906,-210.938,-38.086,0
1594888945.620,-34.180,-316.895,-163.574,-31.250,0
1594888945.623,-29.785,129.395,89.355,-30.273,0
1594888945.627,-30.762,-387.695,-259.766,-26.367,0
1594888945.631,-30.273,-938.965,-432.129,-21.484,0
1594888945.635,-22.461,-199.707,-3.418,-29.297,0
1594888945.639,-12.207,290.039,127.441,-32.715,0
1594888945.650,-2.930,-7.812,-57.129,-35.156,0
1594888945.654,-2.930,-579.590,-354.980,-41.504,0
1594888945.658,-12.695,-509.277,-320.312,-45.898,0
1594888945.662,-8.789,-98.633,-42.969,-44.434,0
1594888945.666,-19.043,42.480,41.504,-49.316,0
1594888945.670,-36.133,-346.191,-227.539,-47.852,0
1594888945.674,-31.250,-977.051,-524.414,-24.902,0
1594888945.677,-33.203,-659.180,-227.051,-13.672,0
1594888945.681,-46.387,169.922,132.812,-20.996,0
1594888945.685,-53.711,167.969,-19.043,-14.160,0
1594888945.689,-53.223,-270.508,-234.863,-4.883,0
1594888945.693,-48.340,-371.094,-208.008,-3.906,0
1594888945.688,-46.387,0.000,36.133,0.977,0
1594888945.692,-44.922,125.977,58.105,-8.789,0
1594888945.696,-49.805,-164.062,-162.109,-30.273,0
1594888945.700,-46.387,-378.418,-226.562,-40.039,0
1594888945.704,-40.527,-183.594,26.367,-48.340,0
1594888945.708,-42.969,-195.312,-89.844,-56.152,0
1594888945.712,-42.969,-486.816,-328.613,-56.641,0
1594888945.715,-39.551,-348.633,-172.852,-55.176,0
1594888945.719,-36.133,-539.551,-295.410,-51.270,0
1594888945.723,-37.598,-992.188,-541.016,-42.969,0
1594888945.727,-40.039,-471.191,-248.047,-43.457,0
1594888945.731,-30.762,101.074,50.781,-42.969,0
1594888945.744,-17.578,150.391,71.777,-34.180,0
1594888945.748,-23.438,59.082,24.902,-28.809,0
1594888945.752,-31.738,133.789,72.266,-31.738,0
1594888945.756,-27.344,10.254,-8.789,-29.785,0
1594888945.760,-27.832,-85.449,-11.719,-26.855,0
1594888945.764,-19.531,-286.133,-99.121,-30.762,0
1594888945.768,-13.672,-852.051,-471.680,-28.320,0
1594888945.771,-13.672,-568.848,-298.828,-26.855,0
1594888945.775,-15.137,-94.727,3.906,-27.344,0
1594888945.779,-21.973,137.207,92.773,-32.227,0
1594888945.783,-26.367,-13.184,-41.992,-32.715,0
1594888945.787,-31.738,-333.008,-131.836,-36.621,0
1594888945.782,-30.273,4.395,93.262,-44.434,0
1594888945.786,-21.973,199.219,119.629,-43.945,0
1594888945.790,-29.297,83.984,20.508,-41.992,0
1594888945.794,-40.039,-160.156,-106.934,-41.992,0
1594888945.798,-32.227,-130.859,-39.062,-46.875,0
1594888945.802,-19.043,-193.359,-83.496,-39.062,0
1594888945.806,-19.043,-417.969,-305.664,-36.621,0
1594888945.809,-29.297,-309.570,-285.156,-55.664,0
1594888945.813,-31.250,-726.074,-474.609,-41.992,0
1594888945.817,-29.297,-874.512,-434.082,-29.785,0
1594888945.821,-27.344,-134.277,-2.441,-43.457,0
1594888945.825,-26.367,7.324,20.996,-42.969,0
1594888945.838,-30.762,-99.121,-83.984,-42.480,0
1594888945.842,-25.879,-584.961,-323.242,-39.062,0
1594888945.846,-21.973,-288.086,-58.594,-36.621,0
1594888945.850,-35.156,157.227,99.121,-42.480,0
1594888945.854,-34.668,59.082,-12.695,-42.480,0
1594888945.858,-28.809,-212.891,-181.152,-35.645,0
1594888945.862,-28.320,-758.301,-388.184,-33.203,0
1594888945.865,-23.438,-275.391,-43.945,-40.039,0
1594888945.869,-27.832,107.910,90.820,-45.898,0
1594888945.873,-25.879,10.254,6.836,-40.039,0
1594888945.877,-21.973,-35.645,-7.324,-35.156,0
1594888945.881,-28.320,96.191,56.641,-37.109,0
1594888945.877,-26.367,29.785,-61.035,-36.133,0
1594888945.881,-24.902,-355.469,-280.762,-37.598,0
1594888945.885,-24.414,-342.773,-209.473,-35.156,0
1594888945.889,-18.066,-295.410,-188.965,-23.438,0
1594888945.893,-22.949,-350.098,-235.352,-24.414,0
1594888945.897,-28.809,-487.305,-330.078,-28.320,0
1594888945.901,-22.461,-542.480,-265.625,-30.273,0
1594888945.904,-23.926,-72.754,34.668,-34.180,0
1594888945.908,-34.668,-451.660,-219.727,-27.344,0
1594888945.912,-45.410,-853.516,-366.699,-24.902,0
1594888945.916,-44.922,-333.496,-111.328,-20.020,0
1594888945.920,-31.738,-22.949,-11.230,-14.648,0
1594888945.932,-31.250,43.945,20.508,-16.602,0
1594888945.936,-38.086,-499.512,-328.125,-9.277,0
1594888945.940,-42.480,-274.902,-178.223,-11.719,0
1594888945.944,-24.902,43.945,37.598,-17.090,0
1594888945.948,-15.625,-215.820,-125.000,-20.996,0
1594888945.952,-34.180,-497.559,-310.059,-29.297,0
1594888945.956,-39.551,-965.332,-555.176,-36.133,0
1594888945.959,-28.320,-678.223,-241.699,-44.922,0
1594888945.963,-29.297,-22.461,99.609,-48.828,0
1594888945.967,-44.922,71.777,40.527,-51.758,0
1594888945.971,-52.734,-172.363,-136.719,-52.734,0
1594888945.975,-45.898,-291.504,-224.121,-50.781,0
1594888945.969,-41.992,-29.785,-44.434,-41.992,0
1594888945.973,-44.434,30.762,-13.672,-31.738,0
1594888945.977,-48.340,-2.441,-47.852,-31.250,0
1594888945.981,-42.480,-170.898,-125.000,-32.715,0
1594888945.985,-35.156,-182.617,-88.867,-32.227,0
1594888945.989,-39.062,-209.473,-63.477,-35.645,0
1594888945.993,-37.598,-461.914,-277.344,-28.320,0
1594888945.996,-38.574,-397.461,-256.348,-28.809,0
1594888946.000,-40.039,-572.754,-303.711,-29.785,0
1594888946.004,-37.598,-975.586,-509.766,-28.320,0
1594888946.008,-37.109,-465.820,-192.383,-35.645,0
1594888946.012,-41.504,11.230,-11.230,-40.527,0
1594888946.025,-38.574,-18.555,-30.273,-41.016,0
1594888946.029,-30.273,-161.621,-20.996,-46.875,0
1594888946.033,-37.109,-82.520,-14.160,-63.477,0
1594888946.037,-32.715,29.785,17.578,-64.453,0
1594888946.041,-25.879,21.973,42.969,-61.035,0
1594888946.045,-29.785,-305.664,-153.320,-62.988,0
1594888946.049,-30.273,-837.402,-444.336,-54.199,0
1594888946.052,-23.438,-356.445,-125.977,-50.781,0
1594888946.056,-20.508,72.754,90.332,-47.852,0
1594888946.060,-23.926,-17.578,8.301,-46.875,0
1594888946.064,-28.320,-308.105,-164.062,-50.293,0
1594888946.068,-28.320,-494.629,-188.965,-38.086,0
1594888946.063,-31.250,-191.406,-82.031,-36.133,0
1594888946.067,-32.227,-29.785,-59.570,-37.109,0
1594888946.071,-28.320,85.938,85.449,-42.969,0
1594888946.075,-34.668,-189.453,-77.148,-45.410,0
1594888946.079,-42.969,-310.059,-197.754,-38.574,0
1594888946.083,-27.832,-291.504,-192.383,-25.391,0
1594888946.087,-18.555,-271.973,-164.062,-14.160,0
1594888946.090,-33.203,-26.367,-54.688,-18.066,0
1594888946.094,-42.969,-590.820,-405.762,-26.855,0
1594888946.098,-41.016,-916.016,-504.395,-25.879,0
1594888946.102,-43.945,-283.691,-170.898,-32.715,0
1594888946.106,-42.969,26.855,-8.301,-43.457,0
1594888946.121,-38.574,-199.219,-158.203,-40.527,0
1594888946.125,-36.621,-761.719,-421.875,-38.574,0
1594888946.129,-32.715,-341.797,-62.500,-48.828,0
1594888946.133,-38.086,95.703,92.773,-67.383,0
1594888946.137,-45.898,33.691,0.488,-69.336,0
1594888946.141,-49.805,-458.008,-278.320,-60.547,0
1594888946.145,-44.434,-890.625,-395.020,-52.246,0
1594888946.148,-39.551,-228.027,-4.883,-46.875,0
1594888946.152,-44.922,39.551,2.930,-48.340,0
1594888946.156,-47.852,-157.227,-168.945,-33.691,0
1594888946.160,-38.086,-254.883,-199.707,-24.414,0
1594888946.164,-29.785,-201.660,-103.027,-27.832,0
1594888946.157,-33.203,21.973,74.707,-30.273,0
1594888946.161,-35.156,-131.836,-114.258,-30.273,0
1594888946.165,-27.832,-222.656,-201.660,-38.086,0
1594888946.169,-35.156,-247.070,-102.539,-40.039,0
1594888946.173,-49.316,-313.477,-145.996,-29.785,0
1594888946.177,-50.781,-547.363,-337.891,-32.715,0
1594888946.181,-47.363,-565.918,-293.945,-33.203,0
1594888946.184,-41.016,79.102,88.379,-28.320,0
1594888946.188,-33.203,-222.168,-128.418,-25.391,0
1594888946.192,-28.809,-979.492,-539.551,-17.090,0
1594888946.196,-27.832,-598.145,-273.438,-24.902,0
1594888946.200,-23.438,21.973,59.570,-38.574,0
1594888946.213,-29.785,167.480,67.871,-46.387,0
1594888946.217,-36.621,-221.191,-193.359,-49.316,0
1594888946.221,-36.621,-149.414,-138.184,-58.594,0
1594888946.225,-39.062,-24.414,-19.531,-62.500,0
1594888946.229,-34.180,-121.094,-26.855,-54.199,0
1594888946.233,-30.273,-517.578,-288.086,-51.270,0
1594888946.237,-40.039,-979.492,-560.547,-49.805,0
1594888946.240,-36.133,-619.141,-302.734,-50.293,0
1594888946.244,-23.926,-120.117,-43.457,-49.805,0
1594888946.248,-26.367,85.938,73.242,-43.945,0
1594888946.252,-30.762,-249.512,-148.438,-38.574,0
1594888946.256,-38.086,-516.113,-200.684,-35.156,0
1594888946.250,-33.203,-109.863,6.836,-26.855,0
1594888946.254,-27.344,-83.496,-74.707,-21.484,0
1594888946.258,-31.250,-249.512,-225.586,-25.391,0
1594888946.262,-35.156,-556.641,-368.652,-20.508,0
1594888946.266,-32.227,-516.113,-253.906,-23.926,0
1594888946.270,-26.855,-416.016,-254.883,-40.527,0
1594888946.274,-32.227,-535.156,-343.262,-40.527,0
1594888946.277,-25.879,-480.957,-302.246,-37.598,0
1594888946.281,-10.742,-795.410,-434.082,-39.062,0
1594888946.285,-8.789,-931.152,-399.414,-44.434,0
1594888946.289,-12.207,-490.234,-254.883,-57.129,0
1594888946.293,-12.695,-227.539,-240.234,-62.012,0
1594888946.307,-10.254,-191.895,-174.316,-56.641,0
1594888946.311,-13.184,-645.020,-372.070,-44.434,0
1594888946.315,-25.879,-470.215,-197.754,-37.598,0
1594888946.319,-33.691,-96.191,-109.375,-37.109,0
1594888946.323,-34.180,-92.285,-200.195,-34.668,0
1594888946.327,-34.180,-333.984,-249.512,-33.691,0
1594888946.331,-34.668,-862.305,-455.078,-28.320,0
1594888946.334,-33.203,-473.633,-237.305,-28.320,0
1594888946.338,-36.621,-165.527,-195.312,-31.738,0
1594888946.342,-40.527,-118.164,-159.668,-36.133,0
1594888946.346,-39.062,25.391,17.090,-40.039,0
1594888946.350,-32.227,-244.141,-184.570,-42.969,0
1594888946.346,-39.062,-476.562,-336.426,-41.016,0
1594888946.350,-40.039,-138.672,-93.262,-39.062,0
1594888946.354,-24.414,113.770,64.453,-36.133,0
1594888946.358,-30.273,-149.902,-94.727,-40.527,0
1594888946.362,-39.062,-429.199,-261.719,-41.504,0
1594888946.366,-27.344,-480.957,-244.629,-38.574,0
1594888946.370,-23.438,-299.805,-83.496,-41.016,0
1594888946.373,-29.297,55.664,57.129,-37.109,0
1594888946.377,-35.156,-463.379,-330.566,-36.133,0
1594888946.381,-44.922,-855.957,-383.301,-34.668,0
1594888946.385,-46.875,-122.070,63.477,-28.320,0
1594888946.389,-49.805,269.043,138.672,-31.250,0
1594888946.401,-40.527,38.574,-25.879,-30.762,0
1594888946.405,-29.785,-598.145,-402.344,-21.973,0
1594888946.409,-26.855,-358.887,-179.688,-33.203,0
1594888946.413,-27.344,-39.551,72.754,-42.969,0
1594888946.417,-28.809,-20.508,10.742,-47.852,2
1594888946.421,-24.902,-190.918,-135.742,-55.664,0
1594888946.425,-29.297,-914.062,-457.520,-49.805,0
1594888946.428,-24.414,-741.211,-276.367,-44.922,0
1594888946.432,-15.625,-40.527,41.992,-53.711,0
1594888946.436,-14.160,-6.348,-60.059,-55.664,0
1594888946.440,-9.766,-167.480,-220.703,-46.387,0
1594888946.444,-9.277,-176.758,-171.875,-44.922,0
1594888946.438,-17.578,6.836,24.414,-46.875,0
1594888946.442,-30.762,-20.996,-41.504,-35.645,0
1594888946.446,-39.062,-184.570,-205.566,-29.297,0
1594888946.450,-33.691,-238.281,-147.949,-31.250,0
1594888946.454,-27.344,-27.832,16.602,-30.762,0
1594888946.458,-34.180,-229.980,-184.082,-36.133,0
1594888946.462,-37.109,-463.379,-292.969,-41.504,0
1594888946.465,-32.227,-244.629,-152.344,-42.480,0
1594888946.469,-27.832,-534.180,-359.863,-37.109,0
1594888946.473,-22.949,-999.023,-604.004,-32.715,0
1594888946.477,-23.438,-600.586,-324.707,-34.180,0
1594888946.481,-26.855,140.137,77.637,-35.645,0
1594888946.494,-21.973,459.961,196.777,-31.738,0
1594888946.498,-23.438,-48.828,-119.629,-28.320,0
1594888946.502,-33.691,-292.969,-274.414,-30.762,0
1594888946.506,-30.273,-269.531,-226.562,-24.902,0
1594888946.510,-22.949,57.129,56.641,-25.391,0
1594888946.514,-19.043,128.418,75.195,-33.203,0
1594888946.518,-18.066,-489.746,-294.434,-20.020,0
1594888946.521,-22.461,-236.328,-152.832,-18.555,0
1594888946.525,-25.391,-121.094,-203.125,-24.902,0
1594888946.529,-21.484,-141.113,-139.648,-22.461,0
1594888946.533,-24.414,-199.707,-109.863,-28.809,0
1594888946.537,-33.203,-499.512,-241.699,-34.180,0
1594888946.532,-25.879,-116.699,-19.531,-37.109,0
1594888946.536,-18.066,106.445,105.957,-36.133,0
1594888946.540,-34.180,16.602,6.836,-28.809,0
1594888946.544,-49.805,-345.703,-258.789,-22.461,0
1594888946.548,-35.645,-343.262,-214.355,-12.695,0
1594888946.552,-30.762,-220.215,-121.094,-15.137,0
1594888946.556,-41.992,-381.836,-229.980,-17.090,0
1594888946.559,-41.016,-209.961,-203.125,-15.137,0
1594888946.563,-34.180,-594.727,-395.996,-22.461,0
1594888946.567,-33.203,-920.410,-439.453,-21.484,0
1594888946.571,-40.527,-170.898,16.113,-27.344,0
1594888946.575,-47.363,-3.906,34.668,-33.203,0
1594888946.588,-43.457,-355.957,-254.883,-34.180,0
1594888946.592,-39.551,-717.773,-404.785,-34.180,0
1594888946.596,-38.574,-353.516,-93.262,-35.156,0
1594888946.600,-45.410,46.875,38.574,-32.227,0
1594888946.604,-55.664,-29.297,-129.395,-28.320,0
1594888946.608,-50.293,-291.504,-256.348,-25.879,0
1594888946.612,-40.527,-838.379,-382.812,-18.066,0
1594888946.615,-32.715,-314.941,-44.434,-22.949,0
1594888946.619,-38.086,102.051,32.227,-27.344,0
1594888946.623,-39.062,-39.551,-40.527,-22.461,0
1594888946.627,-23.438,-199.707,-80.566,-29.297,0
1594888946.631,-20.508,-329.102,-194.824,-30.762,0
1594888946.625,-26.855,-325.195,-243.652,-27.344,0
1594888946.629,-32.227,-333.984,-246.094,-27.344,0
1594888946.633,-26.855,-336.914,-247.559,-25.391,0
1594888946.637,-26.367,-609.375,-327.148,-23.438,0
1594888946.641,-35.156,-627.930,-302.734,-22.461,0
1594888946.645,-43.457,-567.871,-317.383,-29.785,0
1594888946.649,-37.598,-459.961,-228.027,-30.273,0
1594888946.652,-22.949,-85.449,6.836,-18.066,0
1594888946.656,-22.949,-558.594,-322.266,-20.508,0
1594888946.660,-32.715,-854.980,-375.977,-25.391,0
1594888946.664,-28.320,-168.945,13.184,-19.531,0
1594888946.668,-21.973,136.719,89.844,-18.555,0
1594888946.682,-22.949,-20.996,1.465,-29.297,0
1594888946.686,-30.273,-677.734,-387.695,-38.086,0
1594888946.690,-39.062,-417.969,-252.930,-43.457,0
1594888946.694,-39.062,64.453,22.949,-47.363,0
1594888946.698,-38.574,-117.676,-78.613,-52.246,0
1594888946.702,-43.945,-419.922,-275.391,-51.270,0
1594888946.706,-50.293,-886.719,-458.008,-43.457,0
1594888946.709,-49.805,-329.590,-47.363,-45.898,0
1594888946.713,-36.621,215.820,165.527,-51.270,0
1594888946.717,-32.715,-0.977,-59.570,-51.758,0
1594888946.721,-43.457,-319.336,-268.066,-43.945,0
1594888946.725,-40.039,-563.477,-234.863,-32.227,0
1594888946.719,-37.598,-17.578,78.613,-30.762,0
1594888946.723,-53.711,257.324,104.980,-34.180,0
1594888946.727,-56.152,-114.258,-125.977,-33.691,0
1594888946.731,-42.480,-375.000,-208.008,-30.273,0
1594888946.735,-34.180,-95.215,23.438,-36.133,0
1594888946.739,-33.203,-288.574,-182.617,-43.457,0
1594888946.743,-36.133,-529.785,-265.137,-49.805,0
1594888946.746,-41.016,-152.832,-129.883,-57.129,0
1594888946.750,-35.156,-496.094,-341.309,-44.434,0
1594888946.754,-31.250,-1000.000,-457.520,-31.250,0
1594888946.758,-38.574,-533.691,-212.402,-41.016,0
1594888946.762,-35.645,3.906,-32.715,-48.340,0
1594888946.775,-26.367,-1.465,-2.441,-49.316,0
1594888946.779,-27.344,-194.336,-69.824,-43.457,0
1594888946.783,-29.297,43.457,26.855,-37.598,0
1594888946.787,-34.180,193.848,69.824,-41.016,0
1594888946.791,-30.273,72.266,67.383,-39.062,0
1594888946.795,-20.996,-214.355,-51.758,-43.457,0
1594888946.799,-26.367,-807.617,-431.152,-44.922,0
1594888946.802,-23.438,-433.594,-238.770,-49.316,0
1594888946.806,-19.043,35.156,20.996,-51.758,0
1594888946.810,-19.531,33.203,31.738,-45.410,0
1594888946.814,-23.438,-250.977,-133.301,-46.387,0
1594888946.818,-33.691,-492.676,-224.121,-51.758,0
1594888946.814,-41.016,-126.465,-18.555,-46.875,0
1594888946.818,-31.250,48.340,80.566,-45.898,0
1594888946.822,-20.020,24.902,47.852,-54.688,0
1594888946.826,-41.016,-358.398,-196.289,-53.223,0
1594888946.830,-56.152,-468.750,-256.348,-40.527,0
1594888946.834,-46.387,-262.695,-151.367,-39.062,0
1594888946.838,-38.086,-288.574,-125.000,-44.922,0
1594888946.841,-34.668,-175.293,-128.418,-43.457,0
1594888946.845,-34.668,-662.109,-429.199,-40.527,0
1594888946.849,-31.738,-841.309,-395.020,-38.086,0
1594888946.853,-26.367,-67.383,29.297,-41.504,0
1594888946.857,-28.320,-25.879,-50.781,-44.922,0
1594888946.871,-35.156,-321.777,-246.094,-54.199,0
1594888946.875,-38.574,-697.754,-320.801,-61.523,0
1594888946.879,-37.598,-407.715,-164.062,-53.223,0
1594888946.883,-40.039,118.652,57.129,-48.828,0
1594888946.887,-44.922,86.914,43.945,-57.129,0
1594888946.891,-45.410,-361.328,-234.863,-57.129,0
1594888946.895,-34.180,-939.941,-505.371,-41.504,0
1594888946.898,-26.855,-513.184,-191.406,-40.039,0
1594888946.902,-38.574,18.066,27.832,-51.270,0
1594888946.906,-36.133,28.809,-17.578,-50.781,0
1594888946.910,-24.414,-40.039,-16.602,-48.828,0
1594888946.914,-27.344,-108.887,-20.020,-48.340,0
1594888946.907,-36.621,1.465,52.246,-44.922,0
1594888946.911,-41.016,-60.059,-67.871,-40.527,0
1594888946.915,-37.109,-87.402,-121.094,-36.621,0
1594888946.919,-38.086,-255.371,-114.258,-36.621,0
1594888946.923,-41.992,-402.832,-260.742,-45.410,0
1594888946.927,-46.387,-432.129,-290.039,-53.223,0
1594888946.931,-38.086,-458.984,-229.980,-50.293,0
1594888946.934,-21.973,28.809,76.660,-56.641,0
1594888946.938,-16.113,-224.121,-92.773,-59.570,0
1594888946.942,-17.578,-1000.000,-562.988,-50.293,0
1594888946.946,-25.879,-628.906,-258.789,-62.500,0
1594888946.950,-20.996,-36.621,80.566,-70.801,0
1594888946.963,-11.230,-37.109,13.672,-61.523,0
1594888946.967,-21.484,-458.984,-261.719,-52.246,0
1594888946.971,-35.645,-312.500,-236.816,-53.223,0
1594888946.975,-29.297,183.594,104.004,-51.758,0
1594888946.979,-33.203,228.516,101.562,-53.223,0
1594888946.983,-50.293,-261.230,-230.957,-62.988,0
1594888946.987,-45.410,-867.188,-510.742,-49.316,0
1594888946.990,-45.898,-627.930,-269.531,-45.410,0
1594888946.994,-58.105,12.207,89.355,-59.570,0
1594888946.998,-59.082,293.945,138.672,-61.035,0
1594888947.002,-58.105,-99.121,-91.797,-57.129,0
1594888947.006,-60.059,-687.988,-321.289,-50.293,0
1594888947.001,-51.758,-276.367,-64.453,-55.176,0
1594888947.005,-48.828,-19.531,32.227,-51.758,0
1594888947.009,-52.246,-98.633,-106.445,-43.945,0
1594888947.013,-49.805,-351.562,-279.297,-51.758,0
1594888947.017,-33.203,-373.535,-226.074,-43.945,0
1594888947.021,-25.879,-104.004,-35.645,-41.992,0
1594888947.025,-33.691,-251.953,-173.828,-49.805,0
1594888947.028,-36.133,-52.734,-36.133,-47.363,0
1594888947.032,-30.273,-429.199,-206.055,-45.898,0
1594888947.036,-25.391,-865.234,-356.445,-44.434,0
1594888947.040,-32.227,-261.230,-78.613,-49.316,0
1594888947.044,-42.969,19.531,-56.641,-48.340,0
1594888947.057,-36.621,21.484,-23.926,-41.016,0
1594888947.061,-31.738,-576.660,-336.426,-32.715,0
1594888947.065,-34.180,-471.191,-222.656,-30.762,0
1594888947.069,-38.086,49.805,32.227,-40.039,0
1594888947.073,-41.992,-85.938,-90.820,-39.551,0
1594888947.077,-37.598,-393.066,-215.820,-31.250,0
1594888947.081,-33.691,-833.984,-372.070,-33.203,0
1594888947.084,-31.250,-441.406,-198.242,-44.922,0
1594888947.088,-26.367,10.254,-13.184,-41.992,0
1594888947.092,-19.531,132.324,71.777,-36.133,0
1594888947.096,-16.113,92.285,19.531,-41.016,0
1594888947.100,-21.484,-23.438,-49.316,-38.574,0
1594888947.096,-29.785,-192.383,-142.090,-35.156,0
1594888947.100,-33.203,-478.027,-302.246,-37.598,0
1594888947.104,-36.133,-175.293,-122.559,-36.621,0
1594888947.108,-41.992,-244.141,-107.422,-39.062,0
1594888947.112,-43.945,-371.582,-167.480,-44.922,0
1594888947.116,-41.992,-296.387,-188.477,-42.480,0
1594888947.120,-34.180,-313.965,-205.566,-36.621,0
1594888947.123,-26.367,29.785,-10.254,-41.504,0
1594888947.127,-36.133,-431.641,-319.824,-35.645,0
1594888947.131,-43.457,-825.195,-391.602,-29.297,0
1594888947.135,-34.180,-162.598,8.789,-33.203,0
1594888947.139,-38.574,428.223,202.148,-30.273,0
1594888947.150,-34.180,529.785,145.508,-30.273,0
1594888947.154,-25.879,-162.109,-182.129,-25.879,0
1594888947.158,-22.461,-112.793,18.555,-23.438,0
1594888947.162,-18.555,194.824,160.645,-27.344,0
1594888947.166,-22.949,-3.906,5.371,-30.762,0
1594888947.170,-22.461,-162.109,-70.801,-27.832,0
1594888947.174,-27.832,-819.824,-406.738,-27.344,0
1594888947.177,-22.461,-441.406,-126.953,-30.273,0
1594888947.181,-17.090,312.500,174.805,-25.879,0
1594888947.185,-24.902,253.906,36.621,-29.297,0
1594888947.189,-28.320,17.578,1.465,-36.621,0
1594888947.193,-28.809,42.480,54.199,-34.668,0
1594888947.188,-29.297,359.375,134.277,-36.133,0
1594888947.192,-31.738,166.992,74.707,-38.086,0
1594888947.196,-41.504,169.434,101.074,-33.691,0
1594888947.200,-39.551,237.793,103.027,-34.180,0
1594888947.204,-30.762,97.656,81.543,-35.645,0
1594888947.208,-34.668,-147.949,-83.008,-34.180,0
1594888947.212,-40.039,-469.727,-293.945,-28.320,0
1594888947.215,-35.645,-238.281,-89.844,-31.250,0
1594888947.219,-20.020,-361.328,-146.484,-37.109,0
1594888947.223,-24.902,-972.656,-568.359,-26.367,0
1594888947.227,-33.203,-541.504,-244.629,-24.414,0
1594888947.231,-19.043,212.891,169.922,-34.180,0
1594888947.244,-0.977,304.199,106.445,-35.156,0
1594888947.248,2.930,-7.812,-19.531,-33.691,0
1594888947.252,-11.230,70.801,50.293,-36.133,0
1594888947.256,-19.531,113.770,64.453,-34.668,0
1594888947.260,-13.672,69.824,80.078,-28.809,1
1594888947.264,-11.719,-166.016,-84.961,-20.996,0
1594888947.268,-26.367,-812.012,-445.801,-22.461,0
1594888947.271,-35.645,-395.508,-166.992,-32.227,0
1594888947.275,-28.320,174.805,132.812,-41.504,0
1594888947.279,-28.320,107.910,112.305,-51.758,0
1594888947.283,-36.621,-231.445,-137.207,-53.223,0
1594888947.287,-40.527,-444.824,-173.340,-52.246,0
1594888947.282,-35.645,6.348,83.984,-50.781,0
1594888947.286,-33.203,140.625,68.848,-40.527,0
1594888947.290,-39.062,17.090,16.113,-35.645,0
1594888947.294,-46.875,-306.641,-228.516,-26.855,0
1594888947.298,-47.852,-248.047,-165.039,-26.855,0
1594888947.302,-37.598,-166.016,-76.172,-28.320,0
1594888947.306,-39.551,-497.070,-309.570,-30.273,0
1594888947.309,-42.969,-316.406,-249.512,-36.621,0
1594888947.313,-36.621,-526.855,-343.262,-27.832,0
1594888947.317,-33.691,-967.285,-411.133,-15.625,0
1594888947.321,-33.691,-215.820,24.902,-19.531,0
1594888947.325,-43.945,138.672,86.914,-30.273,0
1594888947.338,-47.363,-266.113,-177.734,-29.297,0
1594888947.342,-36.133,-593.262,-344.238,-25.879,0
1594888947.346,-29.785,-72.266,1.953,-22.949,0
1594888947.350,-35.156,201.660,24.902,-20.996,0
1594888947.354,-31.250,-199.219,-249.512,-25.391,0
1594888947.358,-19.531,-490.234,-291.504,-27.344,0
1594888947.362,-16.113,-881.836,-474.609,-22.461,0
1594888947.365,-24.414,-472.656,-244.141,-34.180,0
1594888947.369,-28.809,-0.977,42.480,-44.434,0
1594888947.373,-27.832,-115.234,-9.766,-41.016,0
1594888947.377,-22.949,-308.594,-114.746,-40.527,0
1594888947.381,-20.020,-346.191,-197.754,-46.875,0
1594888947.375,-20.996,-258.789,-217.285,-53.711,0
1594888947.379,-23.926,-271.973,-214.844,-45.898,0
1594888947.383,-18.555,-140.137,-112.793,-39.551,0
1594888947.387,-7.812,-327.148,-171.387,-39.062,0
1594888947.391,-22.461,-560.547,-260.742,-38.086,0
1594888947.395,-41.504,-509.277,-284.180,-37.109,0
1594888947.399,-48.828,-440.430,-210.449,-32.715,0
1594888947.402,-46.875,4.395,63.965,-36.621,0
1594888947.406,-44.922,-252.441,-152.344,-38.086,0
1594888947.410,-43.457,-938.965,-502.930,-20.996,0
1594888947.414,-41.016,-288.086,-85.449,-22.461,0
1594888947.418,-36.621,330.566,170.410,-31.738,0
1594888947.432,-42.480,0.000,-38.086,-24.414,0
1594888947.436,-43.457,-549.805,-339.844,-22.949,0
1594888947.440,-36.133,-258.789,-163.574,-32.227,0
1594888947.444,-29.785,129.883,116.211,-34.668,0
1594888947.448,-25.879,61.035,29.785,-35.156,0
1594888947.452,-32.715,-429.199,-239.746,-44.922,0
1594888947.456,-32.227,-905.762,-483.887,-42.969,0
1594888947.459,-32.227,-421.875,-146.484,-41.016,0
1594888947.463,-25.879,132.324,127.930,-42.969,0
1594888947.467,-25.879,189.941,34.668,-44.922,0
1594888947.471,-38.574,-147.949,-126.465,-42.969,0
1594888947.475,-36.133,-299.316,-107.910,-37.598,0
1594888947.469,-32.227,90.820,56.152,-37.598,0
1594888947.473,-38.574,50.293,8.789,-28.320,0
1594888947.477,-35.156,-131.348,-80.078,-27.832,0
1594888947.481,-27.832,-270.020,-170.410,-33.203,0
1594888947.485,-26.855,-166.504,-22.949,-36.133,0
1594888947.489,-27.832,-262.207,-132.324,-48.340,0
1594888947.493,-27.832,-509.277,-298.828,-43.945,0
1594888947.496,-33.203,-165.527,-176.758,-39.062,0
1594888947.500,-27.344,-455.566,-318.848,-42.969,0
1594888947.504,-24.902,-937.012,-421.875,-40.039,0
1594888947.508,-33.203,-435.547,-255.859,-38.086,0
1594888947.512,-45.410,69.336,-38.086,-39.551,0
1594888947.525,-40.039,201.660,101.074,-31.738,0
1594888947.529,-32.715,-422.852,-234.863,-21.484,0
1594888947.533,-38.086,-390.625,-112.305,-20.508,0
1594888947.537,-43.945,-50.293,18.066,-22.461,0
1594888947.541,-51.270,-26.367,3.906,-23.438,0
1594888947.545,-51.758,-256.348,-102.051,-34.668,0
1594888947.549,-44.434,-846.191,-454.102,-28.320,0
1594888947.552,-37.109,-354.980,-157.715,-22.461,0
1594888947.556,-33.203,-0.977,32.715,-33.691,0
1594888947.560,-28.320,46.875,61.035,-29.785,0
1594888947.564,-26.855,77.637,16.602,-24.902,0
1594888947.568,-35.156,-270.508,-241.699,-41.016,0
1594888947.564,-36.621,-124.512,-112.305,-51.758,0
1594888947.568,-29.785,225.586,140.625,-50.293,0
1594888947.572,-33.203,257.812,100.098,-49.316,0
1594888947.576,-39.062,-209.473,-137.695,-51.758,0
1594888947.580,-43.945,-481.934,-236.816,-51.758,0
1594888947.584,-38.086,-273.438,-160.156,-44.922,0
1594888947.588,-27.832,-220.215,-113.770,-38.086,0
1594888947.591,-31.738,79.102,21.484,-38.086,0
1594888947.595,-31.738,-368.652,-266.602,-39.062,0
1594888947.599,-12.695,-739.746,-291.016,-37.109,0
1594888947.603,-13.672,122.070,139.160,-47.852,0
1594888947.607,-20.508,296.875,133.301,-53.223,0
1594888947.619,-16.602,-57.617,-35.156,-47.363,0
1594888947.623,-18.555,-504.395,-302.734,-50.293,0
1594888947.627,-16.113,-309.570,-75.684,-57.617,0
1594888947.631,-17.090,102.539,134.277,-56.641,0
1594888947.635,-21.973,122.070,34.180,-54.199,0
1594888947.639,-19.531,-256.348,-179.688,-54.688,0
1594888947.643,-11.719,-910.156,-449.219,-43.457,0
1594888947.646,-21.973,-603.027,-205.566,-36.133,0
1594888947.650,-56.152,51.270,49.316,-31.250,0
1594888947.654,-63.477,59.570,6.836,-23.926,0
1594888947.658,-53.223,-52.246,7.324,-21.973,0
1594888947.662,-51.758,-122.070,-15.625,-22.461,0
1594888947.657,-51.758,-149.902,-85.938,-29.785,0
1594888947.661,-47.363,-173.340,-186.035,-35.645,0
1594888947.665,-39.062,-25.391,-33.691,-27.344,0
1594888947.669,-38.574,-184.082,-62.012,-21.484,0
1594888947.673,-43.945,-331.055,-161.133,-35.156,0
1594888947.677,-34.668,-409.180,-231.934,-40.039,0
1594888947.681,-30.273,-563.477,-318.359,-38.086,0
1594888947.684,-27.832,-437.500,-214.355,-41.016,0
1594888947.688,-24.414,-544.922,-283.691,-50.781,0
1594888947.692,-28.320,-986.328,-546.875,-44.434,0
1594888947.696,-27.832,-651.855,-285.645,-39.062,0
1594888947.700,-21.484,91.797,123.047,-40.039,0
1594888947.713,-20.996,86.914,34.180,-39.551,0
1594888947.717,-31.738,-490.234,-289.062,-44.922,0
1594888947.721,-31.738,-320.801,-239.746,-42.969,0
1594888947.725,-23.438,106.445,-7.812,-47.363,0
1594888947.729,-20.996,299.805,128.906,-47.363,0
1594888947.733,-27.832,-138.184,-117.676,-44.434,0
1594888947.737,-39.551,-869.141,-497.070,-41.016,0
1594888947.740,-44.922,-480.957,-191.895,-36.621,0
1594888947.744,-46.875,-33.691,96.191,-38.574,0
1594888947.748,-61.035,-50.293,-28.320,-42.969,0
1594888947.752,-63.477,-313.965,-240.234,-38.574,0
1594888947.756,-55.664,-609.863,-251.953,-32.227,0
1594888947.751,-54.688,-119.141,39.062,-44.922,0
1594888947.755,-55.176,255.371,151.855,-48.340,0
1594888947.759,-53.711,188.965,65.430,-43.945,0
1594888947.763,-49.805,-86.426,-93.750,-42.969,0
1594888947.767,-47.363,50.293,49.316,-45.410,0
1594888947.771,-46.387,-107.422,-37.109,-60.059,0
1594888947.775,-45.410,-375.977,-253.906,-63.477,0
1594888947.778,-41.504,-101.562,-189.453,-62.988,0
1594888947.782,-39.062,-598.633,-403.320,-63.965,0
1594888947.786,-34.668,-984.375,-456.543,-53.711,0
1594888947.790,-29.785,-380.371,-113.770,-48.828,0
1594888947.794,-28.320,-269.043,-191.895,-50.781,0
1594888947.807,-25.391,-132.812,-138.672,-46.875,0
1594888947.811,-20.020,-350.586,-197.266,-46.387,0
1594888947.815,-20.996,-191.406,-31.250,-46.387,0
1594888947.819,-19.531,158.691,107.422,-45.898,0
1594888947.823,-17.578,-39.551,-63.965,-49.316,0
1594888947.827,-21.484,-487.793,-285.645,-49.805,0
1594888947.831,-23.926,-937.500,-505.371,-43.457,0
1594888947.834,-28.809,-549.805,-303.223,-49.805,0
1594888947.838,-33.691,-259.766,-235.352,-49.805,0
1594888947.842,-36.133,-151.855,-186.035,-44.434,0
1594888947.846,-37.109,-164.551,-100.098,-41.016,0
1594888947.850,-38.574,-535.645,-311.523,-41.504,0
1594888947.846,-33.203,-476.074,-338.379,-39.551,0
1594888947.850,-21.484,-376.465,-219.727,-33.203,0
1594888947.854,-16.113,-324.219,-177.734,-28.320,0
1594888947.858,-16.602,-496.582,-298.828,-22.461,0
1594888947.862,-26.367,-567.383,-225.586,-30.273,0
1594888947.866,-32.227,-406.250,-216.797,-39.062,0
1594888947.870,-27.344,-313.965,-150.391,-38.574,0
1594888947.873,-20.020,14.160,13.672,-43.945,0
1594888947.877,-20.996,-533.203,-346.680,-44.922,0
1594888947.881,-33.691,-902.344,-387.695,-39.551,0
1594888947.885,-30.762,-183.594,1.953,-46.875,0
1594888947.889,-30.273,88.379,72.266,-49.805,0
1594888947.901,-32.715,-136.719,-127.930,-47.363,0
1594888947.905,-31.738,-601.074,-411.621,-44.922,0
1594888947.909,-34.668,-375.000,-172.852,-48.828,0
1594888947.913,-23.926,63.965,100.586,-46.387,0
1594888947.917,-20.508,-11.719,29.297,-41.504,0
1594888947.921,-29.785,-312.012,-182.617,-39.551,0
1594888947.925,-39.551,-926.758,-491.211,-38.086,0
1594888947.928,-36.621,-610.840,-195.312,-44.922,0
1594888947.932,-28.320,106.445,94.727,-55.176,0
1594888947.936,-33.203,68.359,-24.902,-49.316,0
1594888947.940,-35.156,-123.535,-76.660,-43.945,0
1594888947.944,-31.250,-31.738,23.926,-45.898,0
1594888947.938,-26.367,157.715,100.586,-50.781,0
1594888947.942,-26.367,-15.137,-32.715,-56.152,0
1594888947.946,-34.668,-186.523,-203.125,-58.594,0
1594888947.950,-31.738,-187.500,-156.738,-60.059,0
1594888947.954,-33.203,-93.750,15.137,-68.848,0
1594888947.958,-41.992,-433.105,-256.348,-66.895,0
1594888947.962,-33.691,-589.844,-317.383,-55.664,0
1594888947.965,-29.785,-102.051,27.344,-49.316,0
1594888947.969,-27.832,-292.480,-72.754,-46.387,0
1594888947.973,-25.391,-965.332,-472.656,-37.598,0
1594888947.977,-34.668,-593.750,-226.562,-41.504,0
1594888947.981,-40.039,-4.395,77.148,-42.969,0
1594888947.994,-39.062,37.109,38.086,-40.039,0
1594888947.998,-34.180,-175.781,-54.199,-33.203,0
1594888948.002,-31.250,-72.266,0.000,-25.879,0
1594888948.006,-29.785,50.293,52.734,-22.461,0
1594888948.010,-28.809,60.547,66.895,-19.043,0
1594888948.014,-30.273,-236.328,-134.766,-24.414,0
1594888948.018,-32.715,-841.797,-467.285,-20.508,0
1594888948.021,-38.086,-438.477,-207.520,-24.902,0
1594888948.025,-34.180,178.223,125.488,-31.250,0
1594888948.029,-24.902,154.297,78.125,-31.738,0
1594888948.033,-32.227,-354.004,-207.520,-35.645,0
1594888948.037,-34.668,-603.027,-220.215,-29.297,0
1594888948.032,-27.344,-95.215,62.012,-25.391,0
1594888948.036,-26.367,256.836,139.648,-33.203,0
1594888948.040,-26.367,61.523,-13.672,-38.086,0
1594888948.044,-28.320,-282.715,-229.980,-40.039,0
1594888948.048,-26.367,-262.207,-199.219,-31.250,0
1594888948.052,-24.902,-150.879,-43.457,-26.855,0
1594888948.056,-29.785,-262.695,-36.621,-33.203,0
1594888948.059,-45.898,-109.375,-16.113,-34.668,0
1594888948.063,-50.781,-439.453,-259.277,-32.227,0
1594888948.067,-38.574,-829.102,-316.895,-26.367,0
1594888948.071,-37.598,-200.195,25.391,-28.809,0
1594888948.075,-42.969,145.020,77.148,-32.227,0
1594888948.089,-40.039,-59.082,-32.715,-37.109,1
1594888948.093,-34.668,-707.031,-388.184,-35.156,0
1594888948.097,-33.203,-535.156,-210.449,-39.551,0
1594888948.101,-34.180,34.668,36.621,-50.293,0
1594888948.105,-34.668,162.598,76.172,-48.340,0
1594888948.109,-27.344,-328.613,-209.961,-44.922,0
1594888948.113,-19.531,-899.902,-413.574,-43.457,0
1594888948.116,-27.344,-314.941,-24.902,-45.898,0
1594888948.120,-41.016,50.781,41.016,-52.246,0
1594888948.124,-39.062,-40.527,-10.742,-48.828,0
1594888948.128,-29.785,-49.805,44.922,-43.457,0
1594888948.132,-31.250,-133.789,-77.637,-43.457,0
1594888948.125,-39.062,-104.492,-111.328,-35.156,0
1594888948.129,-40.039,34.668,-23.438,-33.691,0
1594888948.133,-34.668,151.855,83.496,-43.457,0
1594888948.137,-33.203,-172.852,-41.992,-41.504,0
1594888948.141,-32.715,-478.027,-206.543,-35.156,0
1594888948.145,-34.180,-441.406,-217.773,-38.086,0
1594888948.149,-30.762,-185.059,-27.832,-41.016,0
1594888948.152,-31.250,208.008,165.527,-38.086,0
1594888948.156,-36.133,-251.465,-181.641,-28.320,0
1594888948.160,-37.109,-1000.000,-572.266,-22.461,0
1594888948.164,-40.039,-592.773,-202.637,-23.926,0
1594888948.168,-41.016,138.184,138.672,-22.461,0
1594888948.182,-39.062,1.953,-50.293,-16.113,0
1594888948.186,-45.898,-615.234,-372.070,-23.438,0
1594888948.190,-42.480,-360.840,-192.871,-39.062,0
1594888948.194,-29.297,115.234,96.191,-33.203,0
1594888948.198,-30.273,125.000,70.312,-31.738,0
1594888948.202,-28.320,-353.516,-241.699,-32.227,0
1594888948.206,-24.414,-896.973,-459.473,-29.297,0
1594888948.209,-22.949,-382.324,-84.473,-37.109,0
1594888948.213,-20.508,131.836,123.047,-41.992,0
1594888948.217,-31.250,97.656,38.574,-49.316,0
1594888948.221,-36.133,-259.766,-175.293,-44.922,0
1594888948.225,-32.227,-486.328,-138.184,-40.527,0
1594888948.219,-33.203,-46.387,83.984,-47.852,0
1594888948.223,-41.504,87.402,36.621,-45.898,0
1594888948.227,-39.062,-57.129,-42.480,-41.016,0
1594888948.231,-27.832,-248.535,-141.113,-36.621,0
1594888948.235,-17.090,-154.297,-44.434,-32.227,0
1594888948.239,-19.531,-221.191,-124.023,-33.203,0
1594888948.243,-26.367,-468.750,-276.367,-33.203,0
1594888948.246,-21.973,-111.816,-23.438,-29.297,0
1594888948.250,-19.043,-351.074,-119.629,-32.715,0
1594888948.254,-28.809,-984.863,-483.398,-34.180,0
1594888948.258,-41.016,-700.195,-328.125,-39.551,0
1594888948.262,-44.434,-272.461,-187.500,-52.246,0
1594888948.275,-38.086,-47.852,-9.766,-57.617,0
1594888948.279,-41.992,-279.785,-25.391,-57.617,0
1594888948.283,-46.387,-51.758,34.668,-58.594,0
1594888948.287,-37.598,255.371,105.957,-57.129,0
1594888948.291,-26.367,170.898,86.914,-54.199,0
1594888948.295,-24.902,-16.602,-1.465,-53.223,0
1594888948.299,-25.391,-638.672,-347.656,-47.852,0
1594888948.302,-31.250,-301.270,-114.746,-53.711,0
1594888948.306,-29.785,455.566,220.703,-53.223,0
1594888948.310,-28.320,599.121,194.824,-47.363,0
1594888948.314,-30.762,289.551,87.891,-49.805,0
1594888948.318,-37.109,-112.793,-44.922,-53.711,0
1594888948.315,-39.062,-220.215,-57.129,-49.805,0
1594888948.319,-30.273,-92.773,53.711,-42.480,0
1594888948.323,-30.273,184.570,105.469,-46.387,0
1594888948.327,-41.016,-180.176,-186.035,-46.875,0
1594888948.331,-40.039,-478.027,-254.395,-45.410,0
1594888948.335,-31.738,-168.457,-44.922,-57.617,0
1594888948.339,-32.227,-188.965,-99.609,-57.129,0
1594888948.342,-34.180,-2.930,-36.133,-48.340,0
1594888948.346,-21.973,-402.832,-286.133,-34.180,0
1594888948.350,-8.789,-882.812,-417.480,-22.461,0
1594888948.354,-7.812,-176.270,-37.109,-26.367,0
1594888948.358,-23.438,280.762,143.066,-24.902,0
1594888948.369,-32.715,5.371,-53.711,-13.184,0
1594888948.373,-25.391,-483.398,-311.035,-18.066,0
1594888948.377,-21.484,-264.160,-90.820,-24.902,0
1594888948.381,-26.367,-126.465,-39.551,-31.250,0
1594888948.385,-30.762,-68.848,-82.031,-39.551,0
1594888948.389,-26.855,-236.816,-201.660,-36.621,0
1594888948.393,-22.949,-882.812,-464.844,-31.738,0
1594888948.396,-24.414,-748.047,-270.996,-26.855,0
1594888948.400,-27.832,-106.445,-22.949,-20.996,0
1594888948.404,-33.691,91.309,47.852,-25.391,0
1594888948.408,-39.551,-22.949,16.113,-33.203,0
1594888948.412,-34.180,-45.410,-4.395,-27.344,0
1594888948.407,-35.156,-4.395,-62.988,-24.902,0
1594888948.411,-48.340,-51.270,-83.984,-28.320,0
1594888948.415,-42.480,58.105,46.387,-32.715,0
1594888948.419,-28.320,-61.523,-57.129,-29.297,0
1594888948.423,-34.180,-156.738,-132.812,-27.832,0
1594888948.427,-40.527,-354.004,-248.047,-33.203,0
1594888948.431,-34.668,-506.348,-289.551,-30.762,0
1594888948.434,-32.715,-291.992,-164.551,-31.250,0
1594888948.438,-43.457,-523.438,-266.602,-30.762,0
1594888948.442,-51.758,-778.320,-321.777,-24.902,0
1594888948.446,-43.457,-375.488,-237.793,-25.391,0
1594888948.450,-32.227,-146.484,-128.418,-29.297,0
1594888948.463,-32.715,100.098,72.754,-33.691,0
1594888948.467,-26.367,-502.930,-360.352,-25.391,0
1594888948.471,-28.320,-751.953,-323.242,-27.344,0
1594888948.475,-30.762,29.297,91.309,-42.480,0
1594888948.479,-23.926,270.996,95.215,-41.504,0
1594888948.483,-23.926,-127.441,-51.270,-36.133,0
1594888948.487,-33.691,-794.434,-366.699,-29.297,0
1594888948.490,-31.250,-231.934,-28.809,-32.227,0
1594888948.494,-23.438,126.465,100.586,-32.715,0
1594888948.498,-34.180,-218.750,-191.406,-32.715,0
1594888948.502,-41.992,-286.621,-225.098,-36.621,0
1594888948.506,-37.598,-488.281,-164.062,-28.809,0
1594888948.501,-51.270,-41.016,62.500,-29.297,0
1594888948.505,-59.570,164.551,68.848,-31.738,0
1594888948.509,-51.758,77.637,9.766,-29.297,0
1594888948.513,-49.805,-149.414,-95.703,-30.762,0
1594888948.517,-49.805,-156.250,-4.395,-32.227,0
1594888948.521,-41.016,-255.859,-49.316,-29.297,0
1594888948.525,-36.621,-357.422,-215.820,-25.879,0
1594888948.528,-40.039,163.574,23.438,-25.391,0
1594888948.532,-38.574,-214.355,-114.746,-25.879,0
1594888948.536,-37.598,-914.062,-391.602,-25.391,0
1594888948.540,-42.480,-275.391,-65.918,-30.762,0
1594888948.544,-41.016,21.973,-0.977,-36.133,0
1594888948.557,-36.133,-252.441,-193.359,-38.574,0
1594888948.561,-34.668,-460.449,-297.363,-37.598,0
1594888948.565,-44.922,-83.984,0.977,-42.480,0
1594888948.569,-49.805,145.020,69.824,-52.246,0
1594888948.573,-46.387,-89.844,-96.680,-47.363,0
1594888948.577,-44.922,-166.504,-76.172,-41.016,0
1594888948.581,-46.875,-573.242,-309.570,-42.969,0
1594888948.584,-48.340,-378.418,-212.891,-39.551,0
1594888948.588,-41.016,61.523,31.250,-31.250,0
1594888948.592,-38.574,157.715,104.492,-32.715,0
1594888948.596,-34.180,71.777,37.109,-33.203,0
1594888948.600,-30.273,-193.359,-178.711,-34.180,0
1594888948.594,-45.410,-245.605,-262.207,-41.016,0
1594888948.598,-49.805,-215.332,-182.129,-37.109,0
1594888948.602,-47.852,-381.836,-259.277,-32.227,0
1594888948.606,-52.246,-810.059,-417.480,-36.133,0
1594888948.610,-53.223,-775.879,-333.984,-41.016,0
1594888948.614,-44.434,-661.621,-298.828,-41.016,0
1594888948.618,-29.297,-559.570,-278.320,-35.645,0
1594888948.621,-23.438,-127.441,-71.777,-34.668,0
1594888948.625,-20.508,-528.320,-355.957,-34.180,0
1594888948.629,-24.902,-962.402,-545.898,-28.320,0
1594888948.633,-25.879,-231.934,-34.668,-32.715,0
1594888948.637,-15.137,98.145,103.027,-30.762,0
1594888948.650,-20.996,-187.988,-165.039,-28.809,0
1594888948.654,-30.762,-523.438,-369.141,-26.855,0
1594888948.658,-29.297,-237.793,-115.234,-22.949,0
1594888948.662,-22.461,80.078,98.145,-27.344,0
1594888948.666,-22.949,-44.434,-37.109,-34.668,0
1594888948.670,-30.273,-446.777,-311.523,-37.109,0
1594888948.674,-30.762,-916.016,-468.262,-31.250,0
1594888948.677,-30.762,-528.320,-221.680,-33.691,0
1594888948.681,-36.133,13.672,32.227,-27.344,0
1594888948.685,-41.504,113.770,81.543,-19.531,0
1594888948.689,-42.969,-285.156,-152.344,-26.855,0
1594888948.693,-44.434,-501.953,-131.836,-25.879,0
1594888948.688,-40.039,79.102,149.414,-30.273,0
1594888948.692,-40.527,104.980,26.367,-44.434,0
1594888948.696,-46.387,-191.895,-180.664,-43.945,0
1594888948.700,-38.086,-266.113,-118.652,-40.039,0
1594888948.704,-36.133,-125.000,18.066,-40.039,0
1594888948.708,-49.805,-383.789,-235.840,-37.598,0
1594888948.712,-48.340,-500.488,-283.203,-33.691,0
1594888948.715,-32.715,-130.859,-130.859,-23.438,0
1594888948.719,-25.879,-417.969,-278.809,-20.020,0
1594888948.723,-30.273,-973.633,-536.133,-28.320,0
1594888948.727,-26.855,-479.980,-233.887,-34.180,0
1594888948.731,-19.531,162.109,125.977,-41.992,0
1594888948.744,-19.531,104.004,67.871,-40.527,0
1594888948.748,-20.996,-261.230,-157.227,-32.227,0
1594888948.752,-26.367,-356.934,-280.273,-35.645,0
1594888948.756,-35.645,-290.039,-249.512,-37.109,0
1594888948.760,-34.180,-96.191,-78.125,-32.715,0
1594888948.764,-22.949,-338.867,-179.199,-37.109,0
1594888948.768,-22.949,-903.320,-507.324,-32.227,0
1594888948.771,-28.809,-546.875,-294.434,-24.414,0
1594888948.775,-28.320,103.516,87.891,-27.344,0
1594888948.779,-28.809,380.859,176.270,-32.227,0
1594888948.783,-39.062,50.781,-40.039,-31.250,0
1594888948.787,-49.805,-367.188,-221.680,-35.156,0
1594888948.783,-43.457,-9.766,17.090,-43.457,0
1594888948.787,-36.133,153.809,116.699,-35.156,0
1594888948.791,-34.180,-119.141,-117.188,-32.715,0
1594888948.795,-36.621,-533.691,-321.289,-36.621,0
1594888948.799,-48.828,-511.719,-161.621,-33.691,0
1594888948.803,-55.664,-270.996,-66.406,-38.086,0
1594888948.807,-49.805,-450.195,-252.930,-33.691,0
1594888948.810,-41.504,-227.539,-182.617,-36.133,0
1594888948.814,-38.086,-503.906,-328.613,-45.898,0
1594888948.818,-33.691,-895.508,-381.836,-33.691,0
1594888948.822,-30.762,-35.156,71.777,-36.621,0
1594888948.826,-34.668,306.152,120.117,-47.363,0
1594888948.839,-31.250,136.230,48.340,-39.551,2
1594888948.843,-26.367,-166.992,-78.125,-37.598,0
1594888948.847,-26.855,-252.441,-128.906,-43.945,0
1594888948.851,-29.297,-66.895,-38.086,-45.898,0
1594888948.855,-31.250,-62.988,-12.207,-46.387,0
1594888948.859,-32.715,-406.250,-192.383,-41.504,0
1594888948.863,-29.785,-945.801,-477.051,-29.297,0
1594888948.866,-30.762,-734.863,-296.387,-24.414,0
1594888948.870,-38.086,-66.895,37.598,-29.297,0
1594888948.874,-29.785,180.176,101.562,-23.926,0
1594888948.878,-20.996,71.289,56.641,-20.508,0
1594888948.882,-20.508,-13.184,4.883,-25.879,0
1594888948.875,-24.414,127.441,14.648,-25.391,0
1594888948.879,-34.180,198.730,53.711,-22.949,0
1594888948.883,-35.645,232.910,99.121,-27.832,0
1594888948.887,-37.109,-141.113,-83.008,-29.785,0
1594888948.891,-44.922,-446.777,-242.188,-30.762,0
1594888948.895,-41.016,-568.848,-311.035,-28.809,0
1594888948.899,-27.832,-669.922,-295.898,-23.438,0
1594888948.902,-26.855,-334.473,-121.094,-19.043,0
1594888948.906,-39.062,-441.895,-258.789,-17.578,0
1594888948.910,-46.387,-1000.000,-550.781,-18.066,0
1594888948.914,-41.016,-589.844,-214.844,-21.973,0
1594888948.918,-33.203,234.375,143.066,-20.996,0
1594888948.932,-33.203,188.477,28.320,-28.809,0
1594888948.936,-37.109,-239.746,-249.023,-35.156,0
1594888948.940,-32.715,-125.977,-136.230,-32.715,0
1594888948.944,-24.902,126.465,82.031,-27.344,0
1594888948.948,-29.297,105.957,61.523,-30.762,0
1594888948.952,-31.738,-415.527,-265.137,-25.391,0
1594888948.956,-22.949,-914.551,-501.953,-12.695,0
1594888948.959,-16.113,-431.641,-123.535,-19.531,0
1594888948.963,-11.230,160.156,172.363,-30.762,0
1594888948.967,-20.020,189.941,34.668,-34.180,0
1594888948.971,-32.715,-231.445,-226.074,-33.691,0
1594888948.975,-28.320,-556.641,-226.562,-27.832,0
1594888948.969,-23.438,-125.488,-10.742,-27.344,0
1594888948.973,-30.273,64.941,19.043,-24.414,0
1594888948.977,-38.574,-119.629,-32.715,-25.879,0
1594888948.981,-35.156,-241.211,-94.238,-25.391,0
1594888948.985,-34.180,-158.691,-20.020,-25.391,0
1594888948.989,-34.668,-250.977,-132.812,-28.809,0
1594888948.993,-36.133,-513.184,-334.961,-30.273,0
1594888948.996,-43.945,-167.480,-130.371,-33.203,0
1594888949.000,-38.086,-178.711,-68.848,-32.715,0
1594888949.004,-42.969,-841.797,-388.672,-29.297,0
1594888949.008,-54.199,-493.164,-271.973,-35.156,0
1594888949.012,-40.039,38.574,8.301,-36.133,0
1594888949.025,-25.879,125.000,86.914,-38.574,0
1594888949.029,-23.926,-459.473,-233.398,-32.715,0
1594888949.033,-27.832,-464.844,-199.707,-29.785,0
1594888949.037,-41.992,-10.742,9.766,-39.551,0
1594888949.041,-44.434,153.809,104.004,-36.621,0
1594888949.045,-24.902,-126.465,-73.242,-29.785,0
1594888949.049,-27.344,-807.129,-441.895,-30.273,0
1594888949.052,-41.016,-456.055,-247.070,-37.109,0
1594888949.056,-34.668,43.457,-12.207,-44.434,0
1594888949.060,-27.832,175.293,74.707,-44.922,0
1594888949.064,-28.809,43.945,0.977,-46.875,0
1594888949.068,-35.156,-103.516,-62.988,-39.551,0
1594888949.065,-38.574,-65.430,-63.477,-41.992,0
1594888949.069,-35.645,-302.246,-197.266,-38.086,0
1594888949.073,-37.109,-159.180,-53.223,-31.738,0
1594888949.077,-38.574,-275.879,-147.949,-33.203,0
1594888949.081,-36.621,-554.199,-268.555,-23.438,0
1594888949.085,-32.227,-425.781,-230.957,-22.949,0
1594888949.089,-27.832,-354.980,-205.078,-27.344,0
1594888949.092,-22.949,-26.855,-4.883,-22.461,0
1594888949.096,-28.320,-449.707,-303.223,-17.578,0
1594888949.100,-36.133,-904.785,-389.648,-20.508,0
1594888949.104,-33.203,-158.203,40.527,-27.344,0
1594888949.108,-28.809,269.043,111.328,-25.879,0
1594888949.119,-37.109,16.113,-44.434,-28.320,0
1594888949.123,-39.062,-490.723,-314.941,-33.691,0
1594888949.127,-31.738,-203.613,-49.805,-35.645,0
1594888949.131,-28.809,94.238,81.543,-38.574,0
1594888949.135,-29.785,-181.641,-129.883,-40.039,0
1594888949.139,-28.320,-437.988,-265.137,-43.457,0
1594888949.143,-18.555,-894.043,-404.297,-41.016,0
1594888949.146,-12.207,-678.711,-205.566,-41.992,0
1594888949.150,-16.113,-206.543,-87.402,-46.387,0
1594888949.154,-24.902,30.762,10.742,-41.992,0
1594888949.158,-27.832,176.270,123.047,-32.715,0
1594888949.162,-31.738,19.043,9.277,-25.879,0
1594888949.157,-41.504,39.062,25.391,-29.785,0
1594888949.161,-38.086,-2.441,18.555,-27.344,0
1594888949.165,-31.250,-48.340,1.953,-21.973,0
1594888949.169,-40.039,-111.328,-19.043,-26.367,0
1594888949.173,-48.340,-208.008,-56.152,-21.973,0
1594888949.177,-56.641,-515.137,-269.531,-21.973,0
1594888949.181,-60.547,-626.465,-288.574,-34.668,0
1594888949.184,-44.922,-351.562,-169.922,-38.086,0
1594888949.188,-33.691,-496.582,-308.594,-36.621,0
1594888949.192,-25.879,-958.008,-498.535,-25.879,0
1594888949.196,-23.926,-570.801,-247.559,-26.367,0
1594888949.200,-25.879,60.547,73.242,-36.133,0
1594888949.213,-30.273,200.684,95.215,-45.410,0
1594888949.217,-39.062,-252.930,-207.520,-44.434,0
1594888949.221,-36.621,-250.000,-254.395,-36.133,0
1594888949.225,-34.180,9.277,-49.316,-41.504,0
1594888949.229,-33.203,83.496,118.652,-42.480,0
1594888949.233,-30.762,-279.297,-150.879,-39.062,0
1594888949.237,-33.203,-873.535,-492.676,-34.668,0
1594888949.240,-36.133,-262.695,-29.785,-38.086,0
1594888949.244,-25.879,314.941,205.566,-44.434,0
1594888949.248,-19.531,114.746,3.418,-44.922,0
1594888949.252,-26.367,-353.516,-244.141,-40.527,0
1594888949.256,-33.203,-568.848,-245.117,-37.598,0
1594888949.250,-29.297,31.738,66.406,-37.109,0
1594888949.254,-29.297,289.551,128.418,-33.203,0
1594888949.258,-39.062,-24.902,-26.367,-26.855,0
1594888949.262,-45.410,-211.426,-94.727,-29.297,0
1594888949.266,-36.133,-95.703,2.441,-32.227,0
1594888949.270,-30.273,-277.832,-139.648,-30.273,0
1594888949.274,-39.551,-491.211,-311.035,-32.715,0
1594888949.277,-45.410,-208.496,-196.777,-37.109,0
1594888949.281,-37.598,-446.777,-332.031,-29.297,0
1594888949.285,-29.297,-933.594,-450.195,-21.484,0
1594888949.289,-27.832,-249.023,-36.621,-26.367,0
1594888949.293,-30.762,20.020,-78.613,-23.926,0
1594888949.307,-31.738,-188.477,-222.656,-20.996,0
1594888949.311,-43.457,-382.812,-217.773,-24.902,0
1594888949.315,-51.270,-85.449,3.418,-28.809,0
1594888949.319,-47.363,156.738,70.801,-25.879,0
1594888949.323,-42.969,-12.207,-22.461,-29.785,0
1594888949.327,-33.203,-5.371,49.316,-31.738,0
1594888949.331,-27.832,-325.684,-120.605,-27.832,0
1594888949.334,-36.621,-388.184,-236.328,-36.133,0
1594888949.338,-34.668,-42.480,-115.723,-35.645,0
1594888949.342,-28.320,42.480,31.738,-31.250,0
1594888949.346,-22.949,-0.977,57.617,-25.879,0
1594888949.350,-21.973,-177.246,-124.023,-20.020,0
1594888949.344,-31.250,-298.828,-238.281,-27.344,0
1594888949.348,-29.785,-247.070,-139.648,-28.809,0
1594888949.352,-33.203,9.277,50.293,-36.621,0
1594888949.356,-41.992,-198.242,-115.723,-45.410,0
1594888949.360,-42.969,-603.027,-298.828,-44.922,0
1594888949.364,-36.621,-610.840,-301.270,-48.828,0
1594888949.368,-29.785,-429.199,-201.660,-57.617,0
1594888949.371,-35.156,-118.164,-59.082,-64.453,0
1594888949.375,-50.293,-459.473,-336.426,-60.547,0
1594888949.379,-65.918,-933.105,-490.723,-65.918,0
1594888949.383,-71.289,-219.238,-0.977,-85.938,0
1594888949.387,-71.289,272.461,178.223,-87.891,0
1594888949.400,-79.102,2.441,12.695,-88.379,0
1594888949.404,-80.566,-392.578,-225.098,-83.008,0
1594888949.408,-77.148,-235.352,-149.414,-82.031,0
1594888949.412,-73.242,95.215,81.543,-75.195,0
1594888949.416,-72.266,33.691,-1.465,-67.871,0
1594888949.420,-72.754,-380.371,-251.465,-62.988,0
1594888949.424,-63.965,-897.949,-447.266,-53.711,0
1594888949.427,-50.293,-495.605,-170.410,-53.711,0
1594888949.431,-41.016,110.352,99.609,-52.734,0
1594888949.435,-43.945,183.105,86.426,-48.828,0
1594888949.439,-41.992,-278.809,-214.844,-52.734,0
1594888949.443,-26.855,-539.062,-169.434,-46.875,0
1594888949.438,-30.762,18.555,107.910,-41.992,0
1594888949.442,-42.480,61.523,-33.203,-49.805,0
1594888949.446,-33.203,-89.844,-147.949,-43.457,0
1594888949.450,-28.809,-237.793,-189.453,-35.645,0
1594888949.454,-27.832,-121.582,-53.711,-37.598,0
1594888949.458,-28.809,-404.785,-295.898,-34.668,0
1594888949.462,-29.297,-694.824,-342.773,-31.738,0
1594888949.465,-17.090,-205.078,9.766,-32.715,0
1594888949.469,-11.230,-501.953,-250.488,-27.344,0
1594888949.473,-17.578,-990.723,-500.977,-22.461,0
1594888949.477,-19.531,-538.574,-256.836,-17.090,0
1594888949.481,-17.578,-99.121,-108.887,-11.230,0
1594888949.494,-17.578,-48.828,-27.344,-18.066,0
1594888949.498,-27.832,-531.250,-270.020,-22.461,0
1594888949.502,-33.691,-454.102,-238.770,-27.344,0
1594888949.506,-27.344,97.656,62.988,-28.320,0
1594888949.510,-30.273,195.312,101.562,-28.320,0
1594888949.514,-25.391,7.324,35.645,-21.973,0
1594888949.518,-19.531,-692.383,-306.641,-16.113,0
1594888949.521,-21.484,-297.852,-53.223,-26.855,0
1594888949.525,-9.766,452.637,244.141,-21.973,0
1594888949.529,-7.324,549.805,198.730,-17.090,0
1594888949.533,-14.648,286.621,45.898,-27.832,0
1594888949.537,-19.043,-410.645,-266.602,-23.926,0
1594888949.533,-25.391,-546.875,-300.781,-20.996,0
1594888949.537,-28.320,-129.395,-71.289,-29.297,0
1594888949.541,-19.043,66.406,-35.156,-26.367,0
1594888949.545,-19.531,-314.941,-302.246,-20.996,0
1594888949.549,-19.531,-502.930,-168.945,-25.391,1
1594888949.553,-16.602,-284.180,-21.973,-28.809,0
1594888949.557,-20.508,-294.922,-141.113,-35.156,0
1594888949.560,-29.785,-91.797,-105.469,-38.086,0
1594888949.564,-42.969,-474.121,-338.867,-29.297,0
1594888949.568,-39.551,-953.613,-447.754,-17.578,0
1594888949.572,-39.551,-187.500,14.648,-18.555,0
1594888949.576,-47.852,183.105,99.609,-23.438,0
1594888949.588,-39.062,76.660,10.254,-17.578,0
1594888949.592,-23.438,-57.129,-41.992,-16.602,0
1594888949.596,-15.625,-130.859,-73.730,-15.137,0
1594888949.600,-18.066,-184.570,-168.945,-16.113,0
1594888949.604,-19.043,-174.316,-192.383,-16.602,0
1594888949.608,-14.160,-258.301,-165.039,-19.043,0
1594888949.612,-20.508,-848.633,-434.082,-19.043,0
1594888949.615,-27.832,-708.008,-277.832,-20.996,0
1594888949.619,-34.668,-99.121,4.883,-34.180,0
1594888949.623,-40.527,71.289,38.574,-40.039,0
1594888949.627,-36.133,117.676,65.430,-42.480,0
1594888949.631,-33.203,-112.793,-109.375,-45.898,0
1594888949.625,-38.086,-37.109,-91.797,-44.922,0
1594888949.629,-40.039,-1.465,-3.418,-42.969,0
1594888949.633,-34.668,-2.441,56.641,-36.621,0
1594888949.637,-40.039,-58.105,19.531,-37.598,0
1594888949.641,-50.781,-288.086,-176.270,-44.922,0
1594888949.645,-48.828,-432.129,-246.582,-41.504,0
1594888949.649,-44.922,-479.980,-232.422,-41.016,0
1594888949.652,-39.062,-272.949,-124.023,-44.434,0
1594888949.656,-33.203,-356.445,-187.500,-40.039,0
1594888949.660,-27.832,-972.656,-598.633,-27.832,0
1594888949.664,-26.855,-526.367,-226.562,-29.785,0
1594888949.668,-21.973,316.406,203.613,-32.227,0
1594888949.682,-23.438,323.730,123.535,-29.297,0
1594888949.686,-32.227,-143.555,-104.004,-27.832,0
1594888949.690,-28.809,-250.000,-196.777,-28.809,0
1594888949.694,-19.531,-34.668,6.836,-28.809,0
1594888949.698,-20.996,108.398,73.730,-28.320,0
1594888949.702,-29.297,-261.719,-202.637,-22.461,0
1594888949.706,-28.809,-830.078,-456.543,-18.066,0
1594888949.709,-21.973,-427.246,-157.227,-20.508,0
1594888949.713,-16.602,-152.832,-19.043,-24.902,0
1594888949.717,-26.855,-80.078,-43.457,-30.273,0
1594888949.721,-27.344,-202.637,-170.410,-22.949,0
1594888949.725,-19.043,-396.973,-131.348,-21.484,0
1594888949.719,-22.461,89.355,134.277,-24.414,0
1594888949.723,-29.785,200.684,92.285,-26.855,0
1594888949.727,-31.738,28.320,0.000,-31.250,0
1594888949.731,-29.785,-88.379,-3.906,-27.832,0
1594888949.735,-26.855,25.391,82.031,-32.227,0
1594888949.739,-33.203,15.625,23.926,-43.945,0
1594888949.743,-40.527,-216.309,-139.160,-46.387,0
1594888949.746,-36.621,-50.781,-145.996,-48.828,0
1594888949.750,-36.133,-344.238,-264.160,-48.828,0
1594888949.754,-39.551,-883.301,-422.852,-47.363,0
1594888949.758,-41.016,-351.562,-117.188,-49.805,0
1594888949.762,-41.016,-299.805,-162.598,-49.316,0
1594888949.775,-39.062,-210.938,-69.336,-52.734,0
1594888949.779,-34.180,-460.449,-193.359,-52.246,0
1594888949.783,-38.086,-498.047,-215.332,-52.734,0
1594888949.787,-44.922,-133.789,-134.766,-61.035,0
1594888949.791,-32.227,-45.410,-62.988,-60.059,0
1594888949.795,-23.926,-125.488,-8.789,-59.570,0
1594888949.799,-30.273,-672.852,-360.840,-58.594,0
1594888949.802,-37.598,-461.426,-260.742,-59.570,0
1594888949.806,-32.715,-35.645,-19.043,-58.594,0
1594888949.810,-29.785,192.871,111.328,-45.410,0
1594888949.814,-36.133,47.852,-25.391,-46.387,0
1594888949.818,-48.828,-314.941,-238.281,-41.992,0
1594888949.814,-56.641,-70.801,-90.332,-40.527,0
1594888949.818,-53.223,135.742,89.355,-42.480,0
1594888949.822,-52.246,-31.250,13.672,-40.527,0
1594888949.826,-46.387,-411.621,-233.398,-30.762,0
1594888949.830,-42.969,-571.289,-258.789,-29.785,0
1594888949.834,-36.133,-374.512,-200.684,-25.879,0
1594888949.838,-30.273,-270.996,-157.715,-20.996,0
1594888949.841,-31.250,42.480,26.367,-29.297,0
1594888949.845,-32.227,-379.883,-289.062,-30.273,0
1594888949.849,-22.461,-969.727,-470.215,-21.484,0
1594888949.853,-20.996,-241.699,15.137,-22.461,0
1594888949.857,-33.203,291.016,164.062,-31.738,0
1594888949.869,-45.898,113.770,28.320,-39.062,0
1594888949.873,-41.504,-232.422,-159.668,-38.574,0
1594888949.877,-33.203,111.816,56.641,-34.180,0
1594888949.881,-31.250,357.422,145.996,-29.297,0
1594888949.885,-31.738,9.766,-106.445,-36.133,0
1594888949.889,-37.598,-291.992,-201.660,-38.574,0
1594888949.893,-28.320,-874.512,-375.488,-21.973,0
1594888949.896,-20.996,-599.609,-150.879,-23.438,0
1594888949.900,-34.668,61.523,55.664,-35.156,0
1594888949.904,-39.062,-14.648,-42.480,-27.832,0
1594888949.908,-29.297,-111.328,-21.484,-21.484,0
1594888949.912,-32.715,-102.539,-20.020,-14.648,0
1594888949.907,-40.527,-17.578,-9.277,-16.113,0
1594888949.911,-39.062,-57.129,-96.191,-20.996,0
1594888949.915,-31.250,-40.527,-26.367,-24.414,0
1594888949.919,-30.762,-153.320,-67.871,-27.832,0
1594888949.923,-35.156,-285.156,-193.848,-22.949,0
1594888949.927,-38.086,-609.863,-305.664,-25.391,0
1594888949.931,-31.738,-635.742,-259.766,-30.762,0
1594888949.934,-25.391,-245.117,-90.820,-30.273,0
1594888949.938,-37.598,-468.262,-274.414,-37.109,0
1594888949.942,-41.504,-1000.000,-548.340,-36.133,0
1594888949.946,-31.738,-689.941,-263.672,-34.668,0
1594888949.950,-27.344,153.320,150.879,-31.738,0
1594888949.963,-34.668,229.004,106.445,-32.227,0
1594888949.967,-48.340,-251.465,-249.512,-35.156,0
1594888949.971,-53.711,-166.504,-157.715,-21.973,0
1594888949.975,-50.293,88.867,91.309,-18.555,0
1594888949.979,-46.387,196.777,145.020,-25.391,0
1594888949.983,-49.316,-88.867,-35.156,-32.227,0
1594888949.987,-45.898,-793.945,-425.781,-28.809,0
1594888949.990,-32.227,-496.582,-207.031,-28.809,0
1594888949.994,-27.344,-15.625,63.965,-32.715,0
1594888949.998,-37.109,-15.137,-45.898,-29.785,0
1594888950.002,-46.875,-342.285,-272.949,-26.367,0
1594888950.006,-52.246,-635.742,-249.023,-21.484,0
1594888950.001,-41.504,-254.883,-16.602,-19.531,0
1594888950.005,-28.320,40.527,83.984,-20.020,0
1594888950.009,-27.344,-135.254,-78.125,-26.367,0
1594888950.013,-28.809,-443.848,-297.363,-26.855,0
1594888950.017,-28.809,-308.105,-176.270,-29.785,0
1594888950.021,-22.949,-382.324,-220.703,-26.367,0
1594888950.025,-21.973,-633.789,-326.172,-20.996,0
1594888950.028,-27.344,-441.406,-254.395,-26.855,0
1594888950.032,-30.273,-558.594,-311.523,-29.785,0
1594888950.036,-29.785,-918.945,-367.188,-30.762,0
1594888950.040,-28.320,-294.922,-34.180,-36.133,0
1594888950.044,-29.297,103.516,66.895,-39.551,0
1594888950.058,-25.879,-216.309,-164.062,-39.551,0
1594888950.062,-21.484,-505.371,-281.250,-36.133,0
1594888950.066,-24.414,-199.707,-42.969,-30.273,0
1594888950.070,-33.203,-121.094,-125.000,-25.879,0
1594888950.074,-41.992,-201.660,-194.824,-34.180,0
1594888950.078,-32.715,-241.211,-148.926,-38.574,0
1594888950.082,-23.926,-721.191,-357.422,-33.203,0
1594888950.085,-30.273,-515.137,-187.012,-33.691,0
1594888950.089,-34.180,-151.367,-124.512,-40.527,0
1594888950.093,-27.344,-78.125,-100.586,-38.086,0
1594888950.097,-25.391,-96.680,44.434,-31.250,0
1594888950.101,-33.203,-348.633,-167.969,-37.598,0
1594888950.094,-31.250,-196.777,-162.598,-45.410,0
1594888950.098,-31.738,86.426,67.383,-40.527,0
1594888950.102,-31.250,211.426,100.586,-38.574,0
1594888950.106,-32.715,12.695,-55.664,-47.363,0
1594888950.110,-41.016,-355.957,-209.473,-43.945,0
1594888950.114,-35.645,-462.402,-263.672,-38.086,0
1594888950.118,-34.668,-255.371,-167.969,-39.551,0
1594888950.121,-38.574,126.465,48.340,-37.598,0
1594888950.125,-39.062,-199.219,-130.371,-38.086,0
1594888950.129,-41.504,-979.492,-469.727,-29.785,0
1594888950.133,-32.715,-599.609,-145.020,-31.250,0
1594888950.137,-35.156,118.652,169.922,-43.457,0
1594888950.150,-44.434,-72.266,-83.984,-40.527,0
1594888950.154,-37.598,-423.828,-280.762,-33.203,0
1594888950.158,-38.574,50.781,32.227,-37.109,0
1594888950.162,-46.387,266.602,114.746,-45.410,0
1594888950.166,-51.270,64.941,-17.090,-47.852,0
1594888950.170,-51.758,-181.152,-177.246,-45.410,0
1594888950.174,-42.480,-826.172,-416.504,-33.203,0
1594888950.177,-35.156,-518.066,-141.113,-34.668,0
1594888950.181,-36.133,91.309,105.957,-41.504,0
1594888950.185,-32.715,97.168,63.965,-38.086,0
1594888950.189,-22.461,-153.320,-65.918,-38.574,0
1594888950.193,-15.625,-552.734,-173.828,-33.691,0
1594888950.188,-24.414,-60.059,52.246,-36.621,0
1594888950.192,-33.203,160.156,60.059,-37.109,0
1594888950.196,-34.668,-19.531,-14.160,-29.297,0
1594888950.200,-33.203,-71.777,-21.484,-22.949,0
1594888950.204,-37.109,-166.504,-127.930,-20.508,0
1594888950.208,-46.875,-366.699,-291.016,-24.902,0
1594888950.212,-49.316,-584.473,-298.340,-29.297,0
1594888950.215,-38.574,-22.461,101.562,-28.320,0
1594888950.219,-28.320,-85.938,13.672,-25.391,0
1594888950.223,-29.785,-877.930,-397.949,-18.066,0
1594888950.227,-33.691,-692.383,-316.406,-15.625,0
1594888950.231,-31.738,-62.988,-29.785,-14.648,0
1594888950.244,-34.180,189.453,106.934,-14.160,0
1594888950.248,-32.227,-380.371,-195.312,-22.461,0
1594888950.252,-30.762,-519.531,-275.879,-34.180,0
1594888950.256,-31.250,-67.871,-95.703,-39.062,0
1594888950.260,-21.484,129.395,83.496,-37.109,0
1594888950.264,-21.973,-165.527,-25.879,-32.227,0
1594888950.268,-33.203,-857.910,-458.984,-26.855,0
1594888950.271,-34.668,-495.117,-205.078,-32.715,0
1594888950.275,-21.973,174.805,147.461,-35.645,0
1594888950.279,-15.625,160.645,70.312,-35.156,0
1594888950.283,-26.855,-152.344,-116.699,-31.738,0
1594888950.287,-31.250,-252.930,-195.801,-28.320,0
1594888950.283,-25.391,-78.613,-24.902,-23.438,0
1594888950.287,-24.414,-86.426,31.738,-23.926,0
1594888950.291,-28.809,72.266,62.988,-35.156,0
1594888950.295,-29.785,-267.578,-126.953,-41.992,0
1594888950.299,-33.691,-729.980,-273.926,-42.480,0
1594888950.303,-44.434,-458.984,-154.785,-42.969,0
1594888950.307,-50.781,-344.238,-138.672,-40.527,0
1594888950.310,-50.781,-47.852,13.184,-40.039,0
1594888950.314,-45.410,-212.402,-104.004,-31.250,0
1594888950.318,-34.668,-897.461,-375.488,-21.484,0
1594888950.322,-37.598,-334.961,-17.090,-34.668,0
1594888950.326,-41.016,80.566,60.547,-38.574,0
1594888950.338,-41.016,-81.543,-123.047,-34.180,0
1594888950.342,-33.691,-242.676,-179.688,-30.273,0
1594888950.346,-27.832,-115.723,-5.859,-22.949,0
1594888950.350,-37.598,-102.539,11.719,-35.645,2
1594888950.354,-40.527,-254.395,-173.828,-43.457,0
1594888950.358,-38.574,-207.031,-144.531,-42.969,0
1594888950.362,-38.574,-581.543,-307.129,-41.504,0
1594888950.365,-39.551,-691.895,-275.879,-37.109,0
1594888950.369,-39.551,-88.379,0.000,-40.039,0
1594888950.373,-38.574,157.715,62.012,-36.621,0
1594888950.377,-34.668,127.441,52.734,-38.086,0
1594888950.381,-34.180,-4.883,-12.695,-40.527,0
1594888950.375,-43.945,-88.379,-47.852,-38.086,0
1594888950.379,-39.062,-109.863,-80.078,-41.504,0
1594888950.383,-21.973,74.707,78.613,-40.039,0
1594888950.387,-25.879,-23.438,22.461,-37.598,0
1594888950.391,-44.922,-200.684,-152.344,-48.340,0
1594888950.395,-40.039,-344.238,-226.562,-41.992,0
1594888950.399,-32.227,-350.098,-128.418,-32.715,0
1594888950.402,-39.062,-350.586,-171.387,-36.621,0
1594888950.406,-46.387,-589.844,-344.238,-34.180,0
1594888950.410,-53.223,-986.816,-551.758,-26.367,0
1594888950.414,-52.734,-713.867,-279.297,-26.855,0
1594888950.418,-37.598,8.301,118.164,-33.203,0
1594888950.432,-27.832,72.754,46.387,-32.715,0
1594888950.436,-29.785,-256.836,-179.688,-31.738,0
1594888950.440,-27.344,-44.922,-54.199,-32.227,0
1594888950.444,-20.508,160.156,127.930,-30.762,0
1594888950.448,-22.461,210.449,84.961,-27.832,0
1594888950.452,-30.762,-224.609,-206.055,-27.832,0
1594888950.456,-36.133,-882.324,-477.539,-31.250,0
1594888950.459,-31.250,-342.773,-101.074,-41.992,0
1594888950.463,-27.832,149.414,143.555,-48.340,0
1594888950.467,-26.367,-65.430,-30.762,-41.992,0
1594888950.471,-27.344,-377.930,-231.445,-36.621,0
1594888950.475,-29.297,-454.590,-123.535,-38.574,0
1594888950.469,-27.344,-9.766,105.469,-43.945,0
1594888950.473,-31.738,-15.625,-37.109,-47.363,0
1594888950.477,-36.133,-125.977,-140.625,-50.293,0
1594888950.481,-31.250,-162.109,-163.574,-45.410,0
1594888950.485,-23.926,-29.297,-5.859,-37.598,0
1594888950.489,-21.973,-216.309,-143.066,-42.969,0
1594888950.493,-24.902,-387.695,-280.762,-43.457,0
1594888950.496,-33.203,60.547,17.578,-43.945,0
1594888950.500,-32.715,-256.836,-95.703,-46.875,0
1594888950.504,-23.926,-920.898,-443.848,-46.387,0
1594888950.508,-36.621,-336.914,-86.914,-54.688,0
1594888950.512,-55.664,-20.020,34.180,-51.270,0
1594888950.525,-56.641,-192.871,-81.543,-43.457,0
1594888950.529,-58.105,-360.840,-133.789,-50.781,0
1594888950.533,-58.594,-217.285,-32.715,-48.828,0
1594888950.537,-51.270,-11.230,-38.086,-40.527,0
1594888950.541,-41.992,-75.684,-139.160,-43.945,0
1594888950.545,-30.273,-208.984,-128.418,-47.363,0
1594888950.549,-38.086,-727.539,-363.770,-38.574,0
1594888950.552,-50.293,-474.121,-217.773,-38.086,0
1594888950.556,-40.039,38.086,78.613,-48.828,0
1594888950.560,-24.414,215.820,166.016,-48.828,0
1594888950.564,-27.832,108.398,3.418,-46.875,0
1594888950.568,-37.109,-168.945,-116.699,-43.945,0
1594888950.563,-36.133,-0.488,20.996,-43.945,0
1594888950.567,-24.902,160.645,106.934,-44.922,0
1594888950.571,-25.391,78.613,37.109,-51.270,0
1594888950.575,-39.062,-379.395,-225.586,-53.223,0
1594888950.579,-41.016,-459.961,-232.422,-44.434,0
1594888950.583,-35.645,-303.223,-128.906,-41.504,0
1594888950.587,-34.668,-290.527,-71.777,-47.363,0
1594888950.590,-36.621,-63.965,28.809,-48.340,0
1594888950.594,-32.715,-384.766,-211.914,-48.340,0
1594888950.598,-22.949,-930.176,-407.227,-46.875,0
1594888950.602,-19.531,-242.676,5.859,-54.199,0
1594888950.606,-26.855,160.156,108.398,-55.176,0
1594888950.619,-41.504,-134.277,-170.898,-52.734,0
1594888950.623,-48.340,-446.289,-354.004,-51.758,0
1594888950.627,-39.551,-146.484,-84.473,-52.734,0
1594888950.631,-33.203,128.418,83.008,-51.270,0
1594888950.635,-35.645,47.852,43.945,-45.410,0
1594888950.639,-36.621,-167.480,-97.656,-42.969,0
1594888950.643,-28.809,-796.387,-406.738,-39.062,0
1594888950.646,-30.762,-658.203,-199.707,-38.086,0
1594888950.650,-30.762,-2.930,84.961,-42.480,0
1594888950.654,-30.273,-32.227,-90.332,-40.039,0
1594888950.658,-27.344,-217.285,-137.695,-38.574,0
1594888950.662,-28.809,-314.941,-77.148,-38.086,0
1594888950.657,-25.879,-208.984,-100.098,-36.133,0
1594888950.661,-22.949,-297.852,-265.625,-45.410,0
1594888950.665,-24.902,-354.980,-218.750,-46.387,0
1594888950.669,-16.113,-280.762,-59.570,-43.945,0
1594888950.673,-19.531,-321.289,-155.273,-43.945,0
1594888950.677,-26.855,-482.910,-288.086,-40.527,0
1594888950.681,-30.273,-359.863,-149.414,-44.922,0
1594888950.684,-24.902,38.574,104.980,-46.875,0
1594888950.688,-21.484,-323.242,-154.297,-46.387,0
1594888950.692,-31.738,-990.723,-553.711,-44.434,0
1594888950.696,-35.156,-500.977,-266.602,-46.875,0
1594888950.700,-33.203,201.172,124.512,-61.523,0
1594888950.713,-28.809,138.184,64.453,-61.035,0
1594888950.717,-30.762,-354.004,-295.898,-50.781,0
1594888950.721,-38.086,-313.477,-205.566,-45.410,0
1594888950.725,-29.297,-47.363,48.828,-40.039,0
1594888950.729,-24.414,92.285,80.566,-40.039,0
1594888950.733,-41.992,-270.508,-199.707,-44.434,0
1594888950.737,-46.875,-861.816,-457.520,-33.691,0
1594888950.740,-46.875,-307.129,-93.262,-34.668,0
1594888950.744,-45.410,191.406,136.719,-41.992,0
1594888950.748,-44.434,115.723,53.223,-46.875,0
1594888950.752,-42.969,-126.953,-123.535,-50.781,0
1594888950.756,-33.203,-404.297,-221.680,-47.363,0
1594888950.752,-31.738,-31.250,58.105,-43.945,0
1594888950.756,-39.551,118.652,80.078,-40.039,0
1594888950.760,-41.504,8.301,16.602,-34.668,0
1594888950.764,-47.363,-157.715,-83.008,-33.203,0
1594888950.768,-42.969,-280.273,-135.742,-33.691,0
1594888950.772,-35.156,-305.176,-172.363,-32.715,0
1594888950.776,-32.715,-498.535,-288.574,-28.809,0
1594888950.779,-34.180,-152.832,-169.434,-31.250,0
1594888950.783,-32.715,-310.547,-259.766,-34.180,0
1594888950.787,-32.227,-910.156,-442.871,-37.109,0
1594888950.791,-41.504,-303.711,-102.539,-47.363,0
1594888950.795,-41.504,154.297,101.074,-50.781,0
1594888950.808,-30.762,41.992,42.969,-52.246,0
1594888950.812,-18.555,-243.652,-62.500,-53.223,0
1594888950.816,-20.508,-334.473,-137.207,-60.547,0
1594888950.820,-23.926,-121.582,-130.859,-57.617,0
1594888950.824,-24.902,41.992,-1.465,-51.270,0
1594888950.828,-33.203,-175.781,-77.637,-54.688,0
1594888950.832,-35.645,-835.449,-444.336,-42.480,0
1594888950.835,-37.109,-645.020,-221.191,-36.133,0
1594888950.839,-38.086,16.113,70.801,-38.086,0
1594888950.843,-30.273,154.785,79.590,-30.273,0
1594888950.847,-30.273,-52.246,23.926,-28.809,0
1594888950.851,-42.969,-283.691,-151.367,-31.250,0
1594888950.844,-47.852,-153.809,-148.926,-31.738,0
1594888950.848,-29.785,-46.875,-31.738,-26.367,0
1594888950.852,-15.625,80.078,86.426,-24.414,0
1594888950.856,-18.066,-99.121,-58.105,-30.273,0
1594888950.860,-29.297,-391.113,-247.070,-27.344,0
1594888950.864,-32.715,-515.625,-292.969,-26.367,0
1594888950.868,-22.461,-543.945,-297.363,-28.809,0
1594888950.871,-25.391,-183.105,-87.891,-31.738,0
1594888950.875,-37.109,-205.078,-92.773,-32.715,0
1594888950.879,-38.086,-956.055,-505.371,-26.367,0
1594888950.883,-30.762,-561.523,-182.617,-29.785,0
1594888950.887,-26.367,229.492,156.250,-38.086,0
1594888950.901,-32.227,53.711,-25.391,-38.086,0
1594888950.905,-32.715,-437.988,-281.738,-33.203,0
1594888950.909,-25.391,-266.113,-135.742,-34.180,0
1594888950.913,-21.484,10.742,65.430,-33.691,0
1594888950.917,-30.273,41.504,22.949,-39.551,0
1594888950.921,-42.480,-342.285,-245.117,-47.852,0
1594888950.925,-36.621,-845.703,-452.148,-41.016,0
1594888950.928,-31.738,-428.223,-130.371,-34.668,0
1594888950.932,-39.062,-37.598,74.219,-35.156,0
1594888950.936,-34.180,109.375,86.914,-34.668,0
1594888950.940,-34.668,-50.781,-8.301,-36.621,0
1594888950.944,-30.762,-419.922,-126.953,-29.297,0
1594888950.938,-22.461,-40.039,49.316,-25.879,0
1594888950.942,-27.832,169.434,85.938,-35.156,0
1594888950.946,-27.344,138.672,30.762,-41.504,0
1594888950.950,-19.043,-7.812,-16.602,-42.969,0
1594888950.954,-18.555,-97.656,-12.695,-38.574,0
1594888950.958,-25.879,-441.406,-241.211,-37.109,0
1594888950.962,-34.180,-721.191,-388.184,-40.039,0
1594888950.965,-28.320,-182.617,-104.004,-37.109,0
1594888950.969,-28.809,-317.871,-194.336,-40.527,0
1594888950.973,-40.527,-897.949,-494.629,-38.086,0
1594888950.977,-39.062,-525.879,-284.668,-39.062,0
1594888950.981,-40.039,-177.246,-118.164,-45.410,0
1594888950.994,-37.109,115.723,56.641,-45.410,0
1594888950.998,-31.738,-322.754,-193.848,-39.062,0
1594888951.002,-42.480,-504.883,-284.668,-39.062,0
1594888951.006,-42.969,43.945,24.902,-44.434,0
1594888951.010,-26.367,319.824,171.387,-38.086,0
1594888951.014,-22.949,-14.160,8.789,-39.062,0
1594888951.018,-28.809,-799.805,-436.523,-42.969,0
1594888951.021,-28.320,-481.934,-251.465,-43.457,0
1594888951.025,-19.531,333.984,170.410,-41.016,0
1594888951.029,-20.508,442.383,145.508,-41.016,0
1594888951.033,-25.879,162.598,30.273,-43.457,0
1594888951.037,-24.414,-72.266,-90.820,-42.480,0
1594888951.033,-25.879,48.828,25.391,-48.828,0
1594888951.037,-27.832,-125.000,-58.594,-49.805,0
1594888951.041,-31.250,-125.977,-105.957,-47.363,0
1594888951.045,-34.180,-270.020,-143.066,-41.992,0
1594888951.049,-37.109,-597.168,-233.887,-40.527,0
1594888951.053,-38.574,-381.836,-193.359,-46.875,0
1594888951.057,-37.109,-319.824,-213.867,-46.387,0
1594888951.060,-37.598,-54.199,-24.902,-40.527,0
1594888951.064,-30.762,-318.848,-195.312,-35.645,0
1594888951.068,-24.414,-880.371,-396.973,-28.320,0
1594888951.072,-23.926,-272.949,-22.949,-33.691,0
1594888951.076,-29.297,210.938,117.676,-35.156,0
1594888951.088,-26.367,16.602,1.465,-28.809,1
1594888951.092,-22.949,-236.816,-69.824,-32.715,0
1594888951.096,-28.809,-75.684,40.527,-38.086,0
1594888951.100,-32.715,-91.309,-56.641,-41.992,0
1594888951.104,-37.598,-404.297,-263.672,-43.457,0
1594888951.108,-39.062,-405.273,-129.395,-46.875,0
1594888951.112,-38.574,-719.727,-273.926,-46.387,0
1594888951.115,-43.945,-484.863,-134.766,-46.387,0
1594888951.119,-41.504,213.379,129.883,-48.340,0
1594888951.123,-30.762,348.633,110.840,-37.598,0
1594888951.127,-31.738,266.113,115.723,-40.527,0
1594888951.131,-33.203,185.547,138.672,-41.504,0
1594888951.125,-24.414,201.172,91.309,-34.668,0
1594888951.129,-28.320,57.617,12.207,-34.668,0
1594888951.133,-33.203,154.297,92.773,-35.156,0
1594888951.137,-33.203,76.660,27.344,-35.156,0
1594888951.141,-42.480,-202.148,-120.117,-37.598,0
1594888951.145,-49.316,-395.020,-259.277,-35.156,0
1594888951.149,-42.969,-348.145,-161.133,-31.738,0
1594888951.152,-38.086,-0.488,96.191,-44.922,0
1594888951.156,-39.551,-196.289,-76.172,-50.781,0
1594888951.160,-35.645,-955.566,-477.539,-37.109,0
1594888951.164,-34.668,-533.691,-125.488,-34.668,0
1594888951.168,-31.738,416.504,268.066,-41.016,0
1594888951.182,-30.273,391.602,107.422,-43.945,0
1594888951.186,-33.691,-104.492,-66.406,-43.457,0
1594888951.190,-35.156,30.762,56.152,-44.434,0
1594888951.194,-31.250,410.645,170.410,-45.410,0
1594888951.198,-27.344,260.742,50.781,-40.039,0
1594888951.202,-35.645,-167.969,-178.223,-41.504,0
1594888951.206,-41.992,-779.785,-460.938,-35.645,0
1594888951.209,-27.344,-422.363,-166.504,-28.809,0
1594888951.213,-19.531,163.574,147.949,-30.762,0
1594888951.217,-31.250,4.395,-15.625,-37.109,0
1594888951.221,-35.645,-434.570,-257.324,-34.180,0
1594888951.225,-20.508,-572.266,-157.715,-23.438,0
1594888951.220,-8.301,-73.242,70.801,-27.344,0
1594888951.224,-10.742,5.859,3.418,-30.762,0
1594888951.228,-17.090,-162.109,-84.961,-32.715,0
1594888951.232,-16.113,-237.305,-185.059,-36.621,0
1594888951.236,-12.695,-62.500,-36.133,-36.621,0
1594888951.240,-31.250,-113.281,-49.805,-37.598,0
1594888951.244,-49.316,-412.598,-278.320,-34.180,0
1594888951.247,-47.363,-164.551,-103.516,-30.762,0
1594888951.251,-39.062,-308.105,-113.281,-38.574,0
1594888951.255,-32.715,-923.340,-426.758,-43.945,0
1594888951.259,-34.180,-380.371,-133.789,-47.363,0
1594888951.263,-30.762,191.406,87.402,-59.082,0
1594888951.276,-19.043,73.242,57.617,-50.293,0
1594888951.280,-24.414,-308.594,-115.723,-45.898,0
1594888951.284,-38.086,-193.848,-93.750,-51.758,0
1594888951.288,-43.457,-2.441,-28.320,-44.434,0
1594888951.292,-39.062,-96.680,-72.266,-39.551,0
1594888951.296,-29.785,-200.195,-98.145,-39.551,0
1594888951.300,-32.227,-746.582,-437.988,-39.551,0
1594888951.303,-43.457,-830.078,-391.113,-44.922,0
1594888951.307,-37.598,-391.602,-198.242,-41.016,0
1594888951.311,-33.691,-88.379,-83.496,-38.574,0
1594888951.315,-40.039,-218.750,-101.074,-43.945,0
1594888951.319,-37.598,-587.891,-294.434,-42.969,0
1594888951.313,-30.273,-388.672,-262.207,-36.621,0
1594888951.317,-25.879,-98.145,-108.398,-30.273,0
1594888951.321,-26.367,-22.949,-23.438,-28.320,0
1594888951.325,-32.227,-426.758,-277.832,-32.227,0
1594888951.329,-29.785,-503.418,-209.473,-32.227,0
1594888951.333,-19.531,-510.742,-242.676,-34.180,0
1594888951.337,-19.531,-518.555,-270.020,-38.086,0
1594888951.340,-22.949,-223.633,-150.879,-30.273,0
1594888951.344,-21.484,-661.621,-411.621,-20.020,0
1594888951.348,-25.391,-1000.000,-562.988,-17.578,0
1594888951.352,-25.879,-481.445,-186.035,-21.973,0
1594888951.356,-29.297,126.953,121.582,-29.785,0
1594888951.369,-35.156,41.992,-68.359,-30.762,0
1594888951.373,-32.227,-303.711,-294.434,-20.508,0
1594888951.377,-26.367,-83.984,-57.617,-19.531,0
1594888951.381,-20.996,127.930,103.516,-32.715,0
1594888951.385,-22.461,-28.320,-23.438,-31.250,0
1594888951.389,-37.109,-376.953,-243.164,-30.762,0
1594888951.393,-31.738,-874.023,-460.938,-28.809,0
1594888951.396,-21.973,-537.109,-216.797,-21.973,0
1594888951.400,-28.809,23.926,6.348,-26.367,0
1594888951.404,-40.527,105.469,34.180,-28.809,0
1594888951.408,-38.086,-37.109,-74.707,-27.344,0
1594888951.412,-29.785,-244.141,-107.910,-23.926,0
1594888951.407,-35.645,96.191,76.172,-29.785,0
1594888951.411,-40.527,180.176,52.734,-38.574,0
1594888951.415,-27.344,-29.785,16.602,-36.133,0
1594888951.419,-23.926,-231.445,-78.613,-31.250,0
1594888951.423,-34.180,-230.957,-174.805,-39.062,0
1594888951.427,-35.645,-443.359,-322.266,-43.945,0
1594888951.431,-26.855,-478.027,-260.742,-39.062,0
1594888951.434,-21.484,76.660,70.312,-40.527,0
1594888951.438,-26.367,-203.125,-126.953,-39.062,0
1594888951.442,-40.039,-970.215,-554.688,-34.668,0
1594888951.446,-48.340,-703.613,-333.984,-40.527,0
1594888951.450,-39.062,48.340,82.031,-42.480,0
1594888951.463,-38.574,315.918,162.598,-44.434,0
1594888951.467,-45.410,-430.176,-246.094,-47.852,0
1594888951.471,-44.434,-692.871,-304.199,-50.293,0
1594888951.475,-36.621,45.410,103.516,-44.434,0
1594888951.479,-33.691,208.984,123.047,-41.016,0
1594888951.483,-29.297,-162.109,-52.246,-31.738,0
1594888951.487,-30.762,-790.039,-428.223,-32.715,0
1594888951.490,-30.273,-461.426,-218.750,-41.992,0
1594888951.494,-28.809,102.051,104.004,-42.480,0
1594888951.498,-28.809,160.156,18.066,-40.039,0
1594888951.502,-30.762,-172.363,-221.191,-32.715,0
1594888951.506,-40.039,-469.238,-204.590,-37.109,0
1594888951.502,-42.969,-434.570,-175.781,-35.156,0
1594888951.506,-42.969,-234.863,-62.500,-28.809,0
1594888951.510,-41.016,-33.203,32.715,-33.691,0
1594888951.514,-46.875,-406.250,-275.879,-37.598,0
1594888951.518,-42.969,-612.793,-221.680,-29.297,0
1594888951.522,-30.273,-372.070,-132.324,-27.832,0
1594888951.526,-26.855,-254.883,-216.797,-37.109,0
1594888951.529,-28.320,-1.465,-125.488,-38.574,0
1594888951.533,-28.320,-408.203,-293.945,-27.832,0
1594888951.537,-34.668,-959.961,-433.594,-29.297,0
1594888951.541,-39.551,-403.320,-98.145,-46.387,0
1594888951.545,-33.691,37.598,43.945,-47.852,0
1594888951.557,-31.250,32.715,25.391,-37.109,0
1594888951.561,-30.273,-106.934,-42.969,-41.504,0
1594888951.565,-25.391,-114.258,-22.949,-42.480,0
1594888951.569,-31.250,-233.398,-195.801,-39.551,0
1594888951.573,-29.785,-155.273,-224.609,-37.598,0
1594888951.577,-22.949,-145.508,-213.867,-40.039,0
1594888951.581,-38.086,-727.539,-466.309,-43.945,0
1594888951.584,-51.758,-671.387,-229.980,-39.062,0
1594888951.588,-47.852,-42.480,47.852,-43.457,0
1594888951.592,-37.598,188.477,72.266,-38.086,0
1594888951.596,-34.180,-31.250,-17.090,-30.762,0
1594888951.600,-42.969,-398.438,-221.191,-35.156,0
1594888951.594,-45.898,-255.859,-220.215,-45.898,0
1594888951.598,-43.945,3.906,-59.570,-49.316,0
1594888951.602,-46.387,89.355,73.242,-46.875,0
1594888951.606,-47.363,-157.227,-138.672,-42.480,0
1594888951.610,-49.805,-448.730,-310.547,-38.086,0
1594888951.614,-43.945,-517.578,-290.527,-34.180,0
1594888951.618,-34.668,-401.367,-197.266,-38.086,0
1594888951.621,-36.621,-219.727,-99.609,-46.387,0
1594888951.625,-45.898,-369.629,-239.746,-44.922,0
1594888951.629,-46.387,-974.609,-500.488,-28.320,0
1594888951.633,-46.875,-683.594,-261.230,-26.367,0
1594888951.637,-46.387,102.539,69.824,-33.691,0
1594888951.651,-38.574,-7.324,-95.703,-33.691,0
1594888951.655,-25.391,-305.176,-296.875,-31.738,0
1594888951.659,-14.160,-17.090,-35.645,-36.133,0
1594888951.663,-9.766,127.930,86.426,-38.086,0
1594888951.667,-11.230,-40.039,-41.016,-37.598,0
1594888951.671,-16.602,-359.863,-238.770,-33.203,0
1594888951.675,-30.273,-870.605,-440.430,-31.738,0
1594888951.678,-31.738,-455.078,-158.691,-31.738,0
1594888951.682,-34.180,-53.223,35.156,-27.832,0
1594888951.686,-39.551,-119.629,-123.535,-32.227,0
1594888951.690,-35.156,-286.133,-270.508,-35.156,0
1594888951.694,-29.785,-527.344,-223.633,-31.738,0
1594888951.688,-32.227,-85.449,25.391,-33.203,0
1594888951.692,-38.574,-45.898,-162.109,-36.621,0
1594888951.696,-37.109,-128.418,-227.051,-36.621,0
1594888951.700,-24.414,-121.094,-82.031,-37.109,0
1594888951.704,-15.625,-175.293,-63.477,-35.645,0
1594888951.708,-23.926,-405.762,-215.332,-36.621,0
1594888951.712,-27.344,-533.203,-315.918,-43.457,0
1594888951.715,-16.602,-126.465,-134.277,-46.875,0
1594888951.719,-16.602,-285.645,-183.594,-47.852,0
1594888951.723,-19.043,-903.809,-479.492,-41.016,0
1594888951.727,-22.949,-543.945,-301.758,-43.457,0
1594888951.731,-17.090,-224.121,-162.598,-46.387,0
1594888951.744,-7.812,-66.406,-60.547,-44.434,0
1594888951.748,-15.625,-278.809,-172.852,-39.551,0
1594888951.752,-26.367,-240.234,-121.094,-38.574,0
1594888951.756,-29.785,182.617,131.348,-42.480,0
1594888951.760,-26.855,137.695,103.027,-41.016,0
1594888951.764,-29.297,-119.141,-59.570,-28.809,0
1594888951.768,-37.598,-760.742,-463.379,-19.043,0
1594888951.771,-42.969,-585.938,-294.922,-32.715,0
1594888951.775,-30.273,11.230,17.090,-33.691,0
1594888951.779,-28.809,182.129,78.125,-26.855,0
1594888951.783,-41.992,15.625,-76.172,-26.855,0
1594888951.787,-41.992,-129.883,-196.777,-29.297,0
1594888951.783,-36.133,221.191,78.125,-35.156,0
1594888951.787,-32.715,208.984,122.070,-25.879,0
1594888951.791,-31.250,-139.160,-107.422,-26.367,0
1594888951.795,-28.320,-466.309,-293.457,-41.504,0
1594888951.799,-13.672,-375.000,-115.234,-46.387,0
1594888951.803,-1.465,-179.688,-34.668,-48.828,0
1594888951.807,-3.418,-308.105,-235.352,-40.527,0
1594888951.810,-8.301,-97.168,-158.691,-29.785,0
1594888951.814,-21.973,-381.348,-282.227,-24.414,0
1594888951.818,-30.273,-929.688,-447.754,-20.996,0
1594888951.822,-30.762,-373.535,-73.242,-30.762,1
1594888951.826,-37.109,-89.355,-84.473,-37.109,0
1594888951.838,-44.434,-241.211,-251.953,-41.504,0
1594888951.842,-39.551,-347.656,-227.051,-52.246,0
1594888951.846,-28.809,-104.004,-11.719,-45.410,0
1594888951.850,-33.203,17.578,30.273,-40.527,0
1594888951.854,-45.410,-112.793,-61.035,-44.434,0
1594888951.858,-31.738,-341.797,-183.594,-40.527,0
1594888951.862,-20.020,-838.379,-423.828,-34.668,0
1594888951.865,-21.484,-589.355,-247.070,-33.203,0
1594888951.869,-24.414,-116.699,-106.934,-41.016,0
1594888951.873,-21.484,-52.734,-139.648,-42.969,0
1594888951.877,-20.508,-23.926,-60.059,-38.086,0
1594888951.881,-25.391,-107.422,-34.180,-35.645,0
1594888951.875,-31.738,21.484,16.113,-21.484,0
1594888951.879,-42.969,57.617,23.438,-23.438,0
1594888951.883,-42.969,275.391,119.141,-29.785,0
1594888951.887,-33.691,134.277,-1.465,-25.391,0
1594888951.891,-42.969,-232.910,-210.449,-24.902,0
1594888951.895,-57.617,-433.594,-321.289,-25.391,0
1594888951.899,-50.781,-354.980,-205.078,-27.344,0
1594888951.902,-34.180,134.766,102.539,-28.320,0
1594888951.906,-31.250,-242.676,-171.875,-20.020,0
1594888951.910,-31.250,-1000.000,-521.484,-15.625,0
1594888951.914,-23.926,-643.066,-173.828,-22.461,0
1594888951.918,-16.602,205.078,158.203,-34.180,0
1594888951.932,-14.160,179.199,9.766,-37.109,0
1594888951.936,-14.648,-289.551,-229.980,-37.598,0
1594888951.940,-10.742,-44.922,-25.391,-40.527,0
1594888951.944,-10.742,335.449,176.758,-48.828,0
1594888951.948,-10.254,297.852,115.234,-47.852,0
1594888951.952,-9.277,-182.617,-188.965,-35.645,0
1594888951.956,-18.066,-765.625,-450.195,-32.715,0
1594888951.959,-17.090,-258.301,-63.965,-32.715,0
1594888951.963,-20.020,493.164,219.727,-29.297,0
1594888951.967,-23.438,357.422,68.848,-33.691,0
1594888951.971,-15.137,-93.262,-74.219,-34.180,0
1594888951.975,-23.926,-166.504,-45.898,-32.715,0
1594888951.971,-32.715,290.527,130.859,-31.738,0
1594888951.975,-44.922,314.941,103.027,-33.203,0
1594888951.979,-52.734,165.039,37.109,-30.762,0
1594888951.983,-45.898,-68.359,-56.152,-26.367,0
1594888951.987,-36.133,62.500,94.238,-35.156,0
1594888951.991,-33.691,86.426,51.758,-40.527,0
1594888951.995,-37.598,-93.262,-59.082,-36.133,0
1594888951.998,-44.922,-5.371,28.809,-37.109,0
1594888952.002,-37.109,-321.777,-140.625,-39.062,0
1594888952.006,-28.320,-890.137,-427.734,-36.621,0
1594888952.010,-30.273,-549.316,-297.363,-38.574,0
1594888952.014,-31.738,61.523,-21.484,-39.551,0
1594888952.027,-28.809,299.316,124.512,-35.156,0
1594888952.031,-35.156,15.137,19.531,-36.621,0
1594888952.035,-45.898,-42.969,11.230,-46.387,0
1594888952.039,-34.668,47.852,31.738,-38.086,0
1594888952.043,-17.090,40.039,64.941,-28.809,0
1594888952.047,-14.648,-143.555,-6.348,-32.715,0
1594888952.051,-19.531,-740.234,-338.379,-32.227,0
1594888952.054,-26.367,-744.141,-305.664,-24.414,0
1594888952.058,-31.250,-138.184,-58.594,-27.344,0
1594888952.062,-29.785,189.453,80.078,-26.855,0
1594888952.066,-23.926,50.781,16.602,-26.855,0
1594888952.070,-14.648,-252.441,-167.969,-34.180,0
1594888952.063,-9.766,60.059,4.395,-40.527,0
1594888952.067,-15.137,280.273,114.746,-35.156,0
1594888952.071,-21.973,203.125,79.590,-37.598,0
1594888952.075,-31.250,-149.414,-99.121,-30.762,0
1594888952.079,-37.598,-406.738,-212.891,-25.391,0
1594888952.083,-25.879,-192.871,-56.641,-34.180,0
1594888952.087,-13.184,-189.453,-14.648,-28.809,0
1594888952.090,-9.277,-72.754,29.785,-23.438,0
1594888952.094,-20.508,-251.465,-142.090,-27.832,0
1594888952.098,-56.641,-983.398,-454.590,-22.949,0
1594888952.102,-68.848,-630.859,-179.199,-21.973,0
1594888952.106,-60.547,133.789,104.980,-32.227,0
1594888952.119,-61.523,77.637,6.348,-44.434,0
1594888952.123,-51.270,-299.316,-200.684,-52.246,0
1594888952.127,-32.715,-50.781,4.883,-43.457,0
1594888952.131,-32.227,240.723,140.137,-33.691,0
1594888952.135,-50.293,173.828,70.801,-32.227,0
1594888952.139,-48.828,-136.230,-142.578,-40.527,0
1594888952.143,-33.203,-812.988,-459.473,-36.621,0
1594888952.146,-34.668,-650.391,-253.906,-38.574,0
1594888952.150,-43.945,-76.172,24.414,-45.410,0
1594888952.154,-45.410,226.562,85.938,-43.945,0
1594888952.158,-34.668,121.094,11.230,-42.480,0
1594888952.162,-31.738,-310.547,-92.773,-37.109,0
1594888952.157,-44.434,30.273,67.383,-51.758,0
1594888952.161,-41.016,110.352,48.340,-57.129,0
1594888952.165,-24.902,64.453,83.984,-43.945,0
1594888952.169,-21.484,33.691,62.012,-41.504,0
1594888952.173,-26.367,-186.523,-75.195,-43.457,0
1594888952.177,-21.973,-347.168,-215.820,-47.852,0
1594888952.181,-22.949,-435.547,-232.422,-51.758,0
1594888952.184,-34.180,-20.508,81.055,-45.898,0
1594888952.188,-41.504,-231.445,-94.238,-41.504,0
1594888952.192,-41.992,-935.547,-539.551,-39.062,0
1594888952.196,-43.945,-603.027,-270.996,-41.504,0
1594888952.200,-29.297,-98.145,73.730,-42.480,0
1594888952.213,-20.020,58.594,121.582,-41.504,0
1594888952.217,-26.367,-459.473,-215.332,-41.992,0
1594888952.221,-24.414,-549.805,-208.008,-41.992,0
1594888952.225,-20.996,78.613,109.863,-43.457,0
1594888952.229,-26.855,234.375,112.305,-50.293,0
1594888952.233,-37.598,-186.523,-158.691,-53.711,0
1594888952.237,-41.992,-858.887,-467.773,-41.016,0
1594888952.240,-41.016,-463.867,-160.156,-43.945,0
1594888952.244,-36.133,246.094,153.809,-52.246,0
1594888952.248,-35.645,179.688,49.805,-42.480,0
1594888952.252,-34.180,-197.754,-140.625,-36.133,0
1594888952.256,-31.250,-322.266,-112.793,-40.527,0
1594888952.252,-28.809,-157.715,-27.344,-43.945,0
1594888952.256,-23.438,-156.250,-119.141,-42.480,0
1594888952.260,-27.832,50.781,17.090,-40.527,0
1594888952.264,-27.344,-121.582,-94.238,-34.668,0
1594888952.268,-18.066,-220.703,-104.980,-27.832,0
1594888952.272,-11.719,-224.121,-165.039,-34.180,0
1594888952.276,-12.695,-385.742,-300.781,-36.621,0
1594888952.279,-15.625,103.027,-8.301,-34.668,0
1594888952.283,-20.996,-63.477,-15.625,-32.227,0
1594888952.287,-15.625,-904.297,-359.863,-27.832,0
1594888952.291,-23.438,-479.004,-189.453,-31.738,0
1594888952.295,-41.016,211.914,76.660,-43.945,0
1594888952.307,-41.016,214.355,65.430,-50.293,0
1594888952.311,-41.016,39.551,20.020,-41.504,0
1594888952.315,-45.410,126.465,72.266,-36.621,0
1594888952.319,-48.340,-18.555,-92.285,-38.086,0
1594888952.323,-41.992,-173.340,-181.641,-30.762,0
1594888952.327,-29.785,-81.543,-53.711,-32.715,0
1594888952.331,-33.691,-745.605,-392.578,-34.180,0
1594888952.334,-47.363,-743.164,-284.180,-28.809,0
1594888952.338,-46.875,27.832,105.957,-24.414,0
1594888952.342,-43.457,233.887,116.211,-35.645,0
1594888952.346,-39.551,105.469,59.082,-40.039,0
1594888952.350,-40.527,-11.230,-30.762,-37.598,0
1594888952.345,-42.969,29.297,9.766,-45.898,0
1594888952.349,-39.062,136.719,83.984,-42.480,0
1594888952.353,-32.715,301.270,137.695,-39.551,0
1594888952.357,-31.738,0.977,-65.430,-41.992,0
1594888952.361,-41.992,-275.879,-231.445,-46.387,0
1594888952.365,-41.992,-333.496,-209.961,-50.293,0
1594888952.369,-36.133,-363.281,-167.969,-52.734,0
1594888952.372,-35.156,-305.664,-155.273,-49.316,0
1594888952.376,-35.156,-503.418,-309.570,-41.992,0
1594888952.380,-28.809,-991.211,-486.328,-40.039,0
1594888952.384,-25.391,-618.164,-156.250,-48.828,0
1594888952.388,-34.668,206.055,154.785,-43.457,0
1594888952.400,-41.504,251.953,62.012,-34.180,0
1594888952.404,-40.527,-157.227,-147.949,-39.062,0
1594888952.408,-35.156,-43.945,-63.965,-41.504,0
1594888952.412,-26.855,169.922,126.465,-45.898,0
1594888952.416,-23.926,22.461,34.180,-46.875,0
1594888952.420,-33.691,-261.719,-181.152,-45.898,0
1594888952.424,-34.180,-634.277,-294.434,-49.805,0
1594888952.427,-34.668,-261.230,-16.602,-57.129,0
1594888952.431,-41.992,-4.395,8.301,-58.105,0
1594888952.435,-47.363,-319.336,-234.863,-48.340,0
1594888952.439,-51.758,-499.512,-260.254,-49.805,0
1594888952.443,-48.340,-631.836,-253.418,-47.852,0
1594888952.438,-46.875,-253.418,-84.473,-41.504,0
1594888952.442,-60.547,-137.695,-105.469,-44.434,0
1594888952.446,-61.523,-159.668,-181.641,-45.898,0
1594888952.450,-46.875,-154.785,-84.961,-46.875,0
1594888952.454,-36.621,-150.391,-20.996,-53.711,0
1594888952.458,-34.180,-387.207,-232.422,-53.223,0
1594888952.462,-36.621,-648.438,-369.141,-50.293,0
1594888952.465,-39.551,-206.055,-52.246,-50.781,0
1594888952.469,-46.387,-233.887,-35.645,-53.223,0
1594888952.473,-58.105,-886.230,-419.922,-44.922,0
1594888952.477,-55.176,-411.621,-178.223,-34.180,0
1594888952.481,-39.551,-4.883,46.387,-39.062,0
1594888952.494,-29.297,-217.773,-48.828,-47.363,0
1594888952.498,-30.273,-479.004,-200.684,-40.039,0
1594888952.502,-34.180,-419.922,-208.008,-35.645,0
1594888952.506,-34.668,-132.324,-90.332,-36.133,0
1594888952.510,-34.668,-17.578,37.598,-34.180,0
1594888952.514,-23.438,-267.578,-133.789,-24.902,0
1594888952.518,-21.973,-858.398,-485.840,-17.090,0
1594888952.521,-35.156,-544.922,-270.508,-36.133,0
1594888952.525,-26.367,-8.301,12.695,-39.551,0
1594888952.529,-19.043,123.047,75.684,-38.086,0
1594888952.533,-28.320,-26.367,-28.320,-51.758,0
1594888952.537,-23.438,-351.562,-241.211,-51.270,0
1594888952.532,-17.578,-92.773,-68.848,-58.594,0
1594888952.536,-19.043,156.738,110.352,-62.012,0
1594888952.540,-21.973,-32.715,-21.973,-50.293,0
1594888952.544,-38.574,-488.770,-295.898,-41.992,0
1594888952.548,-44.434,-574.219,-207.031,-42.480,0
1594888952.552,-36.133,-290.527,-60.059,-44.434,0
1594888952.556,-35.645,-374.512,-235.352,-36.133,0
1594888952.559,-31.738,-261.230,-207.520,-28.320,0
1594888952.563,-38.574,-459.473,-313.477,-36.621,0
1594888952.567,-42.480,-921.387,-419.434,-32.227,0
1594888952.571,-35.645,-249.023,4.883,-26.855,0
1594888952.575,-40.527,98.145,56.641,-27.344,0
1594888952.588,-40.527,-103.027,-51.758,-20.996,2
1594888952.592,-30.762,-215.332,-90.820,-7.324,0
1594888952.596,-25.391,-85.449,-7.812,-7.812,0
1594888952.600,-31.250,-37.109,-31.250,-23.438,0
1594888952.604,-30.762,-162.598,-173.340,-29.297,0
1594888952.608,-19.043,-265.137,-224.609,-29.297,0
1594888952.612,-15.137,-695.801,-366.211,-29.297,0
1594888952.615,-26.367,-695.801,-273.438,-24.414,0
1594888952.619,-40.527,-62.012,-38.086,-26.855,0
1594888952.623,-41.016,265.137,125.488,-34.180,0
1594888952.627,-29.297,80.566,49.805,-28.809,0
1594888952.631,-22.949,-148.438,-60.059,-31.250,0
1594888952.625,-23.438,-7.812,-19.043,-31.738,0
1594888952.629,-30.273,-1.465,-80.078,-39.551,0
1594888952.633,-32.715,33.691,29.297,-46.875,0
1594888952.637,-34.668,94.238,78.613,-46.875,0
1594888952.641,-41.504,-102.051,-185.547,-53.711,0
1594888952.645,-41.992,-479.980,-348.633,-54.199,0
1594888952.649,-30.762,-460.449,-256.348,-43.945,0
1594888952.652,-21.973,-41.504,-72.754,-39.551,0
1594888952.656,-24.414,-332.520,-252.930,-42.480,0
1594888952.660,-22.461,-994.141,-606.445,-28.809,0
1594888952.664,-18.555,-652.344,-228.027,-21.973,0
1594888952.668,-19.531,18.066,112.793,-29.297,0
1594888952.682,-28.320,33.691,-47.363,-31.250,0
1594888952.686,-43.457,-477.539,-326.660,-32.715,0
1594888952.690,-42.480,-351.562,-229.004,-30.273,0
1594888952.694,-30.273,104.004,52.734,-25.879,0
1594888952.698,-31.738,155.273,49.316,-23.438,0
1594888952.702,-36.621,-268.066,-215.820,-14.160,0
1594888952.706,-32.715,-837.402,-453.613,-20.020,0
1594888952.709,-27.344,-362.305,-123.535,-36.621,0
1594888952.713,-24.414,275.391,167.480,-38.574,0
1594888952.717,-20.508,118.164,-51.270,-35.645,0
1594888952.721,-20.508,-284.180,-286.133,-37.109,0
1594888952.725,-20.996,-450.684,-212.402,-39.062,0
1594888952.721,-17.090,18.066,54.688,-41.504,0
1594888952.725,-26.367,24.902,-26.367,-47.363,0
1594888952.729,-35.645,-144.043,-186.523,-44.922,0
1594888952.733,-29.785,-385.254,-305.664,-32.715,0
1594888952.737,-20.996,-499.023,-162.109,-27.832,0
1594888952.741,-14.648,-393.555,-182.617,-35.156,0
1594888952.745,-19.531,-340.820,-213.867,-39.551,0
1594888952.748,-31.250,-10.742,37.109,-44.434,0
1594888952.752,-24.414,-421.387,-170.410,-33.691,0
1594888952.756,-28.809,-990.234,-464.355,-16.113,0
1594888952.760,-49.805,-464.844,-248.047,-28.809,0
1594888952.764,-56.152,74.219,22.461,-38.574,0
1594888952.775,-51.758,92.773,45.898,-32.227,0
1594888952.779,-43.457,-225.586,-156.738,-25.391,0
1594888952.783,-45.898,-357.910,-265.625,-33.203,0
1594888952.787,-41.504,-102.051,-105.469,-35.156,0
1594888952.791,-29.297,202.148,125.000,-29.785,0
1594888952.795,-32.227,-1.953,-6.348,-32.227,0
1594888952.799,-40.527,-739.258,-440.918,-33.203,0
1594888952.802,-39.062,-800.293,-396.484,-34.668,0
1594888952.806,-35.156,-147.949,-73.242,-40.527,0
1594888952.810,-32.227,200.195,104.980,-33.691,0
1594888952.814,-29.785,29.785,-12.695,-31.250,0
1594888952.818,-30.762,-349.121,-262.695,-38.574,0
1594888952.813,-29.785,-167.969,-130.859,-42.969,0
1594888952.817,-17.090,242.188,141.113,-41.992,0
1594888952.821,-8.301,326.172,145.020,-39.551,0
1594888952.825,-22.949,-104.492,-127.930,-44.434,0
1594888952.829,-33.203,-353.516,-228.027,-48.828,0
1594888952.833,-24.902,-259.766,-179.688,-39.551,0
1594888952.837,-21.484,-375.000,-242.676,-38.574,0
1594888952.840,-21.973,-427.246,-252.441,-38.574,0
1594888952.844,-26.367,-420.410,-274.414,-34.668,0
1594888952.848,-29.785,-473.633,-203.613,-33.691,0
1594888952.852,-27.344,32.715,60.059,-28.809,0
1594888952.856,-24.902,287.598,100.098,-29.297,0
1594888952.869,-39.551,160.156,46.387,-38.086,0
1594888952.873,-48.340,-414.062,-278.809,-34.668,0
1594888952.877,-42.969,-979.980,-452.637,-22.949,0
1594888952.881,-28.320,-194.824,20.020,-34.668,0
1594888952.885,-22.949,309.570,123.535,-43.457,0
1594888952.889,-28.320,-40.039,-67.871,-37.598,0
1594888952.893,-31.250,-472.656,-238.281,-34.180,0
1594888952.896,-34.180,-367.676,-141.602,-34.180,0
1594888952.900,-37.109,-206.055,-163.086,-39.062,0
1594888952.904,-42.969,-79.590,-114.258,-40.039,0
1594888952.908,-39.551,-95.215,-6.348,-36.621,0
1594888952.912,-36.133,-455.078,-138.672,-31.738,0
1594888952.907,-39.062,-147.949,15.137,-37.598,0
1594888952.911,-43.945,-42.480,9.277,-42.969,0
1594888952.915,-44.922,-62.500,-12.695,-42.969,0
1594888952.919,-52.246,-48.340,34.668,-46.387,0
1594888952.923,-56.152,-133.301,-26.855,-48.828,0
1594888952.927,-60.059,-368.652,-202.637,-47.852,0
1594888952.931,-64.453,-395.508,-212.891,-48.340,0
1594888952.934,-60.059,94.727,73.242,-57.617,0
1594888952.938,-56.641,-194.336,-88.379,-49.316,0
1594888952.942,-58.594,-901.367,-471.191,-43.457,0
1594888952.946,-49.316,-516.113,-203.613,-44.434,0
1594888952.950,-38.086,-47.852,93.750,-31.738,0
1594888952.963,-33.691,224.121,113.770,-27.832,0
1594888952.967,-25.879,-237.793,-225.098,-32.227,0
1594888952.971,-27.832,-339.844,-173.828,-36.133,0
1594888952.975,-32.227,194.336,145.020,-41.992,0
1594888952.979,-22.461,309.082,150.391,-40.527,0
1594888952.983,-25.391,-44.922,-47.852,-40.039,0
1594888952.987,-43.457,-773.438,-476.562,-40.527,0
1594888952.990,-42.969,-574.707,-295.898,-39.551,0
1594888952.994,-36.133,-48.340,70.312,-36.621,0
1594888952.998,-29.297,28.809,80.566,-25.391,0
1594888953.002,-18.066,-159.668,-59.570,-18.555,0
1594888953.006,-35.156,-346.680,-136.719,-20.508,0
1594888953.002,-46.875,-147.461,19.531,-22.461,0
1594888953.006,-35.645,-249.023,-74.219,-20.508,0
1594888953.010,-31.738,-238.281,-177.246,-34.180,0
1594888953.014,-33.691,-287.598,-194.824,-38.574,0
1594888953.018,-26.855,-455.566,-105.957,-34.668,0
1594888953.022,-13.184,-250.977,-35.156,-38.086,0
1594888953.026,-15.137,-266.113,-181.152,-37.109,0
1594888953.029,-21.484,-27.832,-26.367,-42.969,0
1594888953.033,-26.367,-143.555,-10.254,-49.316,0
1594888953.037,-20.020,-850.586,-328.613,-36.133,0
1594888953.041,-18.555,-468.750,-174.805,-33.691,0
1594888953.045,-29.785,71.289,62.988,-45.898,0
1594888953.057,-35.645,217.285,118.652,-51.270,0
1594888953.061,-28.809,0.488,3.906,-46.875,0
1594888953.065,-20.996,6.348,20.996,-46.387,0
1594888953.069,-25.879,29.785,11.719,-45.410,0
1594888953.073,-24.902,-264.160,-151.367,-40.527,0
1594888953.077,-14.160,-277.832,-181.641,-35.645,0
1594888953.081,-21.973,-704.590,-381.836,-23.926,0
1594888953.084,-45.410,-665.527,-221.680,-20.508,0
1594888953.088,-48.828,53.223,88.867,-27.832,0
1594888953.092,-41.504,479.004,212.402,-25.879,0
1594888953.096,-35.156,462.891,168.945,-27.832,0
1594888953.100,-29.785,-23.438,-101.562,-29.785,0
1594888953.094,-29.297,77.148,29.785,-29.785,0
1594888953.098,-35.645,211.914,141.113,-33.203,0
1594888953.102,-39.551,147.461,97.168,-34.668,0
1594888953.106,-34.668,12.207,8.301,-38.086,0
1594888953.110,-29.785,-124.512,-20.996,-42.969,0
1594888953.114,-28.320,-305.176,-158.203,-46.875,0
1594888953.118,-24.902,-354.004,-161.133,-48.828,0
1594888953.121,-17.578,-90.820,12.695,-48.828,0
1594888953.125,-26.855,-286.621,-162.109,-41.504,0
1594888953.129,-46.387,-963.867,-433.594,-30.273,0
1594888953.133,-41.504,-629.395,-152.832,-25.879,0
1594888953.137,-43.945,175.293,140.137,-27.832,0
1594888953.150,-55.176,150.391,32.715,-23.438,0
1594888953.154,-47.852,-227.539,-151.367,-17.090,0
1594888953.158,-40.039,-112.793,-14.648,-20.508,0
1594888953.162,-34.668,107.910,134.277,-29.785,0
1594888953.166,-28.809,-106.445,-50.293,-45.898,0
1594888953.170,-28.809,-337.891,-223.145,-56.152,0
1594888953.174,-17.578,-723.145,-404.297,-51.270,0
1594888953.177,-9.766,-416.992,-162.109,-53.711,0
1594888953.181,-21.484,182.129,122.559,-64.941,0
1594888953.185,-37.598,66.406,11.719,-60.547,0
1594888953.189,-48.828,-253.418,-157.715,-51.758,0
1594888953.193,-44.922,-503.906,-255.859,-45.410,0
1594888953.188,-41.016,-148.438,-49.805,-42.480,0
1594888953.192,-37.598,48.828,51.270,-37.109,0
1594888953.196,-32.227,-63.965,-7.324,-34.668,0
1594888953.200,-25.391,-76.172,27.344,-30.762,0
1594888953.204,-19.531,33.203,115.723,-38.086,0
1594888953.208,-23.438,-239.746,-148.926,-38.086,0
1594888953.212,-31.250,-431.641,-294.922,-31.250,0
1594888953.215,-29.785,-82.520,-91.309,-36.133,0
1594888953.219,-30.273,-250.977,-100.586,-36.133,0
1594888953.223,-38.574,-892.578,-441.406,-34.180,0
1594888953.227,-41.992,-420.410,-234.863,-38.086,0
1594888953.231,-38.086,156.250,93.750,-40.527,0
1594888953.245,-32.715,170.898,90.820,-47.363,0
1594888953.249,-29.297,-259.766,-128.906,-47.852,0
1594888953.253,-31.738,-286.133,-53.223,-40.527,0
1594888953.257,-34.180,126.465,96.680,-42.969,0
1594888953.261,-28.809,240.723,112.305,-33.691,0
1594888953.265,-22.949,-41.016,-15.137,-36.133,0
1594888953.269,-25.391,-750.000,-437.988,-40.039,0
1594888953.272,-29.297,-502.441,-228.027,-33.203,0
1594888953.276,-20.996,86.914,83.496,-31.250,0
1594888953.280,-21.973,209.961,104.980,-29.297,0
1594888953.284,-40.527,0.977,48.340,-28.809,0
1594888953.288,-52.734,-333.984,-147.461,-27.344,0
1594888953.282,-51.270,0.000,29.785,-31.250,0
1594888953.286,-44.922,306.641,155.762,-42.480,0
1594888953.290,-45.410,229.004,78.125,-39.062,0
1594888953.294,-54.688,-218.750,-161.621,-30.762,0
1594888953.298,-46.875,-361.328,-160.645,-31.738,0
1594888953.302,-39.062,-138.672,7.324,-38.574,0
1594888953.306,-39.062,-293.945,-173.828,-28.809,0
1594888953.309,-37.109,-206.543,-215.332,-21.484,0
1594888953.313,-32.715,-414.551,-291.992,-17.090,0
1594888953.317,-27.344,-986.328,-490.234,-13.672,0
1594888953.321,-25.391,-395.996,-110.840,-27.832,0
1594888953.325,-26.855,192.383,118.164,-35.645,0
1594888953.338,-28.809,62.500,20.996,-31.250,0
1594888953.342,-28.809,-166.992,-80.566,-21.484,0
1594888953.346,-30.762,-5.371,5.859,-19.531,0
1594888953.350,-40.039,343.750,139.648,-32.227,0
1594888953.354,-46.387,182.617,40.527,-41.016,0
1594888953.358,-46.387,-116.211,-86.914,-33.691,0
1594888953.362,-46.387,-556.641,-279.297,-29.297,0
1594888953.365,-46.387,-490.234,-167.480,-40.039,0
1594888953.369,-40.039,25.391,86.426,-39.062,0
1594888953.373,-38.574,286.133,151.855,-41.016,0
1594888953.377,-35.156,195.312,65.918,-47.852,0
1594888953.381,-32.715,-164.062,-62.988,-42.969,0
1594888953.375,-37.109,-109.863,-36.133,-44.434,0
1594888953.379,-36.133,21.973,40.039,-41.016,0
1594888953.383,-33.691,264.160,115.234,-47.852,0
1594888953.387,-25.391,132.812,45.898,-50.293,0
1594888953.391,-26.855,-129.395,-78.125,-41.992,0
1594888953.395,-41.992,-349.609,-234.375,-35.645,0
1594888953.399,-36.133,-353.027,-134.277,-29.785,0
1594888953.402,-25.879,107.422,131.348,-34.180,0
1594888953.406,-24.414,-313.477,-220.215,-40.039,0
1594888953.410,-27.832,-997.070,-591.797,-36.133,0
1594888953.414,-20.020,-916.504,-442.871,-38.086,0
1594888953.418,-17.090,-443.848,-227.051,-41.992,0
1594888953.432,-27.344,-354.980,-282.715,-41.992,0
1594888953.436,-35.645,-830.078,-508.301,-46.387,0
1594888953.440,-37.598,-733.887,-370.117,-50.293,0
1594888953.444,-26.855,-199.707,-117.676,-54.199,0
1594888953.448,-37.598,-51.270,-18.555,-61.035,0
1594888953.452,-41.992,-415.039,-213.867,-56.641,0
1594888953.456,-37.109,-917.480,-501.465,-46.875,2
1594888953.459,-40.527,-528.320,-195.312,-40.527,0
1594888953.463,-34.668,-49.805,84.961,-37.109,0
1594888953.467,-32.227,-39.551,-43.945,-32.715,0
1594888953.471,-30.273,-211.914,-226.562,-30.762,0
1594888953.475,-30.762,-476.562,-247.559,-34.180,0
1594888953.471,-34.180,-430.664,-217.285,-39.551,0
1594888953.475,-38.086,-235.840,-201.660,-39.551,0
1594888953.479,-41.992,-41.992,-30.273,-39.062,0
1594888953.483,-40.039,-206.543,-29.297,-41.992,0
1594888953.487,-38.574,-521.973,-148.926,-41.992,0
1594888953.491,-44.922,-370.605,-128.906,-42.969,0
1594888953.495,-47.363,-456.543,-268.555,-45.898,0
1594888953.498,-44.922,-247.070,-199.707,-44.922,0
1594888953.502,-37.109,-232.910,-109.375,-35.156,0
1594888953.506,-25.391,-872.559,-394.531,-28.320,0
1594888953.510,-26.367,-635.254,-351.562,-31.738,0
1594888953.514,-37.109,-290.527,-197.754,-28.809,0
1594888953.526,-38.086,-147.461,-36.133,-20.508,0
1594888953.530,-37.598,-177.734,-19.531,-25.391,0
1594888953.534,-43.457,-271.973,-165.039,-34.180,0
1594888953.538,-44.922,-422.363,-234.375,-41.016,0
1594888953.542,-41.992,-146.484,20.508,-43.945,0
1594888953.546,-37.598,-86.914,16.602,-43.457,0
1594888953.550,-38.574,-851.562,-499.023,-39.062,0
1594888953.553,-41.504,-829.590,-410.156,-41.504,0
1594888953.557,-38.574,7.324,39.551,-46.387,0
1594888953.561,-31.738,383.789,140.137,-39.062,0
1594888953.565,-31.250,173.340,13.184,-37.598,0
1594888953.569,-36.133,-130.371,-119.141,-40.039,0
1594888953.563,-38.086,-102.051,-93.750,-38.574,0
1594888953.567,-34.668,99.609,51.270,-34.668,0
1594888953.571,-28.320,194.824,126.953,-39.062,0
1594888953.575,-31.738,-129.883,-83.496,-46.875,0
1594888953.579,-38.086,-375.000,-194.824,-45.898,0
1594888953.583,-34.180,-302.246,-165.527,-51.758,0
1594888953.587,-32.715,-252.441,-93.750,-57.129,0
1594888953.590,-28.320,-200.195,-69.824,-46.387,0
1594888953.594,-20.996,-359.863,-249.512,-43.457,0
1594888953.598,-21.973,-952.148,-500.977,-42.969,0
1594888953.602,-22.949,-712.891,-270.508,-38.574,0
1594888953.606,-31.250,43.457,86.426,-49.316,0
1594888953.619,-31.738,96.680,43.457,-48.340,0
1594888953.623,-29.297,-126.953,-9.277,-45.410,0
1594888953.627,-30.273,165.039,125.488,-49.316,0
1594888953.631,-29.785,344.727,118.652,-43.945,0
1594888953.635,-36.621,157.227,45.898,-37.598,0
1594888953.639,-41.016,-63.965,11.230,-34.180,0
1594888953.643,-35.156,-542.969,-240.234,-33.691,0
1594888953.646,-33.691,-181.152,-29.785,-35.156,0
1594888953.650,-34.180,121.582,77.148,-30.273,0
1594888953.654,-37.109,-117.188,-40.527,-29.785,0
1594888953.658,-33.203,-38.574,61.523,-26.855,0
1594888953.662,-22.461,-293.457,-70.801,-23.926,0
1594888953.657,-29.785,-137.207,-11.719,-29.297,0
1594888953.661,-29.785,121.094,80.078,-32.227,0
1594888953.665,-14.160,351.074,95.703,-30.762,0
1594888953.669,-13.184,216.309,42.969,-32.227,0
1594888953.673,-26.367,-5.371,-12.695,-32.715,0
1594888953.677,-28.320,-242.188,-159.180,-38.574,0
1594888953.681,-18.066,-474.609,-271.484,-40.039,0
1594888953.684,-14.648,-57.129,-29.297,-35.645,0
1594888953.688,-10.254,-167.480,-63.477,-26.367,0
1594888953.692,-13.672,-911.133,-455.566,-19.531,0
1594888953.696,-24.414,-519.531,-248.047,-23.438,0
1594888953.700,-15.625,12.695,68.848,-27.344,0
1594888953.713,-7.324,-69.824,27.344,-31.250,0
1594888953.717,-13.184,-397.949,-168.945,-39.062,0
1594888953.721,-18.066,-305.664,-95.703,-41.016,0
1594888953.725,-26.367,52.246,65.430,-40.527,0
1594888953.729,-39.062,34.180,18.066,-35.156,0
1594888953.733,-46.387,-302.246,-227.539,-37.598,0
1594888953.737,-50.293,-898.438,-553.223,-33.203,0
1594888953.740,-51.270,-457.520,-195.312,-36.621,0
1594888953.744,-50.781,285.645,163.574,-48.340,0
1594888953.748,-44.922,195.801,62.012,-41.992,0
1594888953.752,-40.527,-1.465,-13.184,-30.762,0
1594888953.756,-36.133,-122.070,-87.402,-27.344,0
1594888953.750,-28.320,74.707,68.848,-34.180,0
1594888953.754,-23.438,128.906,104.004,-41.016,0
1594888953.758,-27.832,-153.320,-140.625,-43.457,0
1594888953.762,-31.738,-400.879,-320.801,-39.062,0
1594888953.766,-21.484,-339.355,-102.051,-44.434,0
1594888953.770,-18.066,-186.035,-14.648,-54.199,0
1594888953.774,-30.273,-349.609,-183.594,-62.500,0
1594888953.777,-39.062,-28.809,25.391,-71.289,0
1594888953.781,-36.133,-300.781,-165.527,-60.059,0
1594888953.785,-32.227,-906.738,-391.113,-48.828,0
1594888953.789,-31.250,-266.602,-9.277,-49.316,0
1594888953.793,-33.691,63.477,52.734,-53.223,0
1594888953.807,-25.879,54.688,45.410,-57.617,0
1594888953.811,-12.695,-54.199,-21.484,-53.711,0
1594888953.815,-13.672,-15.137,-10.742,-52.734,0
1594888953.819,-17.578,127.441,68.359,-53.223,0
1594888953.823,-21.973,-42.969,-16.602,-53.223,0
1594888953.827,-30.762,-165.039,-22.949,-47.852,0
1594888953.831,-41.504,-651.367,-300.293,-35.645,0
1594888953.834,-42.969,-658.203,-241.699,-32.715,0
1594888953.838,-45.410,65.430,88.379,-38.574,0
1594888953.842,-51.270,266.113,103.027,-45.898,0
1594888953.846,-52.734,68.359,38.086,-55.176,0
1594888953.850,-40.039,-180.176,-69.824,-46.875,0
1594888953.844,-25.879,47.363,31.738,-32.227,0
1594888953.848,-28.320,145.508,72.266,-30.273,0
1594888953.852,-37.598,18.555,42.480,-31.250,0
1594888953.856,-41.992,-163.574,-68.359,-36.133,0
1594888953.860,-40.527,-211.426,-105.957,-40.527,0
1594888953.864,-33.691,-315.918,-186.035,-40.527,0
1594888953.868,-27.344,-316.895,-147.461,-40.527,0
1594888953.871,-28.320,93.262,79.590,-43.945,0
1594888953.875,-32.227,-250.488,-180.176,-51.270,0
1594888953.879,-41.504,-1000.000,-551.758,-46.875,0
1594888953.883,-47.363,-646.973,-215.332,-43.457,0
1594888953.887,-45.898,69.824,125.977,-48.340,0
1594888953.900,-37.598,-10.742,-17.090,-42.969,0
1594888953.904,-43.457,-364.258,-264.160,-38.086,0
1594888953.908,-43.457,-245.605,-161.621,-36.621,0
1594888953.912,-33.203,135.254,118.164,-31.250,0
1594888953.916,-43.945,125.000,58.105,-38.086,0
1594888953.920,-54.199,-308.594,-258.789,-45.410,0
1594888953.924,-51.270,-814.941,-463.867,-32.715,0
1594888953.927,-44.434,-583.496,-257.812,-24.414,0
1594888953.931,-40.039,-161.621,-118.652,-32.715,0
1594888953.935,-39.062,-1.953,-109.863,-40.039,0
1594888953.939,-27.832,-77.148,-97.656,-41.504,0
1594888953.943,-15.625,-333.496,-135.254,-40.039,0
1594888953.939,-19.043,-76.172,34.668,-47.363,0
1594888953.943,-21.973,122.070,64.941,-46.387,0
1594888953.947,-27.832,-7.812,-18.555,-44.434,0
1594888953.951,-29.297,-215.820,-82.520,-46.387,0
1594888953.955,-30.762,-139.648,-58.594,-43.945,0
1594888953.959,-34.180,-249.023,-178.711,-44.434,0
1594888953.963,-33.203,-585.449,-371.094,-43.945,0
1594888953.966,-32.715,-120.117,-68.848,-40.039,0
1594888953.970,-28.809,-34.668,7.324,-32.715,0
1594888953.974,-41.504,-831.543,-459.473,-22.461,0
1594888953.978,-54.688,-613.281,-353.516,-24.902,0
1594888953.982,-50.293,-208.984,-158.691,-33.691,0
1594888953.996,-42.969,-135.254,-109.375,-34.668,0
1594888954.000,-41.504,-497.070,-288.086,-38.574,0
1594888954.004,-38.574,-669.434,-344.727,-44.434,0
1594888954.008,-33.691,-318.359,-201.172,-44.434,0
1594888954.012,-31.738,-153.320,-121.582,-45.410,0
1594888954.016,-27.832,-382.324,-229.004,-42.480,0
1594888954.020,-23.926,-918.945,-570.801,-33.691,0
1594888954.023,-28.809,-860.840,-427.246,-34.180,0
1594888954.027,-25.879,-303.711,-101.562,-42.480,0
1594888954.031,-19.043,-66.895,-38.086,-37.598,0
1594888954.035,-24.902,-188.965,-73.730,-35.156,0
1594888954.039,-37.109,-479.980,-231.934,-48.828,0
1594888954.032,-45.898,-198.730,-92.773,-49.805,0
1594888954.036,-48.340,70.801,61.523,-51.270,0
1594888954.040,-52.734,-32.227,-47.363,-57.129,0
1594888954.044,-53.711,-383.789,-304.199,-60.059,0
1594888954.048,-46.387,-558.105,-300.293,-64.453,0
1594888954.052,-43.945,-391.113,-232.910,-64.941,0
1594888954.056,-35.645,-354.492,-254.883,-57.617,0
1594888954.059,-32.227,-77.148,-29.297,-49.805,0
1594888954.063,-33.691,-243.652,-154.785,-48.340,0
1594888954.067,-24.902,-977.051,-450.195,-35.645,0
1594888954.071,-25.391,-647.461,-152.832,-34.180,0
1594888954.075,-36.621,108.887,92.285,-48.828,0
1594888954.088,-34.668,77.637,-1.465,-47.852,0
1594888954.092,-31.738,-278.320,-109.863,-37.598,0
1594888954.096,-30.273,-172.852,-26.367,-34.668,0
1594888954.100,-39.062,-14.160,32.227,-36.621,0
1594888954.104,-60.059,-99.121,-101.074,-47.363,0
1594888954.108,-59.570,-334.961,-226.562,-54.199,0
1594888954.112,-48.340,-801.758,-385.254,-45.898,0
1594888954.115,-45.410,-630.371,-275.391,-36.133,0
1594888954.119,-33.691,-173.828,-53.711,-32.227,0
1594888954.123,-20.508,317.871,177.246,-37.109,0
1594888954.127,-16.602,419.922,168.945,-43.945,0
1594888954.131,-21.484,-278.320,-159.180,-38.574,0
1594888954.125,-28.320,-55.176,3.418,-38.574,0
1594888954.129,-31.738,217.285,115.234,-36.133,0
1594888954.133,-39.551,272.461,119.629,-33.203,0
1594888954.137,-48.340,338.379,117.676,-35.645,0
1594888954.141,-50.293,21.973,0.000,-34.180,0
1594888954.145,-54.199,-246.582,-113.281,-41.504,0
1594888954.149,-51.270,-357.910,-166.992,-51.270,0
1594888954.152,-41.992,54.688,104.980,-49.805,0
1594888954.156,-40.527,-79.590,-43.945,-41.992,0
1594888954.160,-36.621,-896.973,-506.348,-25.879,0
1594888954.164,-25.391,-705.566,-307.617,-20.020,0
1594888954.168,-22.949,67.871,75.195,-26.855,0
1594888954.182,-20.020,292.480,96.191,-30.762,0
1594888954.186,-20.996,-148.926,-80.566,-22.461,0
1594888954.190,-25.391,-149.902,-67.871,-13.184,0
1594888954.194,-25.879,316.895,145.508,-24.902,0
1594888954.198,-26.855,316.406,135.254,-32.715,0
1594888954.202,-30.273,-71.777,-98.633,-31.738,0
1594888954.206,-38.574,-699.219,-423.340,-33.203,0
1594888954.209,-36.133,-504.395,-194.824,-26.367,0
1594888954.213,-30.273,185.547,131.348,-30.762,0
1594888954.217,-41.992,303.711,114.746,-42.969,0
1594888954.221,-38.086,-54.688,-88.867,-40.527,0
1594888954.225,-26.367,-320.801,-136.230,-38.574,0
1594888954.221,-29.785,-162.109,-4.395,-41.992,0
1594888954.225,-32.227,-400.391,-244.629,-39.062,0
1594888954.229,-36.133,-234.375,-138.184,-47.852,0
1594888954.233,-43.457,-229.980,-91.797,-55.664,0
1594888954.237,-39.551,-582.031,-175.781,-47.363,0
1594888954.241,-35.156,-479.492,-138.184,-43.945,0
1594888954.245,-45.410,-468.750,-272.461,-40.039,0
1594888954.248,-53.711,-134.277,-129.883,-35.156,0
1594888954.252,-47.852,-144.043,-65.430,-32.227,0
1594888954.256,-37.109,-843.262,-393.066,-18.555,0
1594888954.260,-37.598,-489.258,-298.828,-26.367,0
1594888954.264,-41.504,-17.090,-150.391,-35.156,0
1594888954.276,-29.785,61.035,13.672,-21.973,0
1594888954.280,-23.926,-164.551,-32.227,-14.160,0
1594888954.284,-32.227,-195.312,-118.164,-17.090,0
1594888954.288,-37.109,28.320,12.695,-20.508,0
1594888954.292,-34.668,-120.605,-0.977,-22.461,0
1594888954.296,-30.762,-221.191,-36.621,-24.902,2
1594888954.300,-30.762,-754.395,-408.203,-25.879,0
1594888954.303,-40.039,-786.621,-336.914,-29.785,0
1594888954.307,-44.434,-48.340,33.691,-42.480,0
1594888954.311,-42.480,396.973,144.531,-49.316,0
1594888954.315,-40.039,331.055,106.445,-44.922,0
1594888954.319,-40.039,-234.863,-194.824,-43.457,0
1594888954.313,-43.457,-230.469,-166.992,-47.852,0
1594888954.317,-40.039,25.879,40.039,-46.387,0
1594888954.321,-37.109,-181.152,-160.156,-44.922,0
1594888954.325,-37.109,-545.410,-346.191,-48.340,0
1594888954.329,-29.785,-660.156,-289.551,-46.387,0
1594888954.333,-30.273,-559.082,-281.250,-46.875,0
1594888954.337,-34.180,-493.164,-260.742,-56.641,0
1594888954.340,-33.691,-400.879,-235.840,-59.082,0
1594888954.344,-40.527,-569.824,-377.930,-54.688,0
1594888954.348,-47.363,-993.164,-562.012,-39.551,0
1594888954.352,-44.922,-740.723,-243.652,-37.598,0
1594888954.356,-39.062,-191.406,58.594,-42.480,0
1594888954.369,-43.945,-74.219,-4.395,-39.551,0
1594888954.373,-45.410,-363.281,-231.445,-35.645,0
1594888954.377,-38.574,-172.852,-117.676,-32.227,0
1594888954.381,-29.297,127.441,71.289,-34.668,0
1594888954.385,-37.598,-25.879,-23.926,-38.574,0
1594888954.389,-39.062,-231.934,-189.941,-46.875,0
1594888954.393,-32.227,-551.758,-350.586,-40.527,0
1594888954.396,-35.156,-373.047,-178.711,-35.645,0
1594888954.400,-33.691,2.930,17.578,-36.621,0
1594888954.404,-36.133,13.672,71.777,-32.715,0
1594888954.408,-34.180,-43.945,62.500,-30.273,0
1594888954.412,-24.902,-285.645,-89.355,-28.809,0
1594888954.407,-26.855,176.758,82.520,-34.668,0
1594888954.411,-26.855,298.340,125.977,-39.551,0
1594888954.415,-27.344,251.953,122.559,-40.527,0
1594888954.419,-32.715,351.074,152.344,-39.551,0
1594888954.423,-33.203,192.871,106.934,-40.527,0
1594888954.427,-35.645,-153.320,-170.898,-42.969,0
1594888954.431,-33.691,-248.047,-172.852,-41.504,0
1594888954.434,-29.785,200.684,155.273,-49.805,0
1594888954.438,-32.715,42.969,39.062,-47.852,0
1594888954.442,-37.109,-854.980,-442.871,-33.691,0
1594888954.446,-40.039,-519.043,-248.535,-42.480,0
1594888954.450,-35.645,238.770,122.559,-47.852,0
1594888954.463,-39.551,120.117,38.086,-47.852,0
1594888954.467,-51.270,-364.746,-186.523,-54.199,0
1594888954.471,-54.688,-328.613,-108.887,-60.059,0
1594888954.475,-55.664,153.320,108.398,-58.105,0
1594888954.479,-50.781,206.055,58.594,-57.617,0
1594888954.483,-44.922,-242.676,-150.879,-63.965,0
1594888954.487,-41.992,-838.867,-462.891,-62.012,0
1594888954.490,-30.273,-454.590,-137.207,-59.082,0
1594888954.494,-22.461,225.586,157.715,-65.430,0
1594888954.498,-19.531,266.113,47.852,-65.918,0
1594888954.502,-27.344,65.918,6.348,-59.082,0
1594888954.506,-34.668,-317.871,-170.410,-46.387,0
1594888954.500,-32.715,-79.590,6.348,-45.898,0
1594888954.504,-32.227,297.852,161.621,-52.246,0
