timestamps,TP9,AF7,AF8,TP10,Marker0
1594888583.664,-15.137,90.820,-270.020,-53.223,0
1594888583.668,-19.531,-114.746,-397.461,-69.336,0
1594888583.672,-18.066,-75.684,-403.809,-73.242,0
1594888583.676,-18.066,215.332,-234.863,-75.684,0
1594888583.680,-20.508,1.953,-321.777,-83.984,0
1594888583.684,-15.625,-178.711,-430.664,-82.520,0
1594888583.688,-17.578,-176.270,-571.289,-81.055,0
1594888583.691,-20.996,-223.633,-632.812,-71.777,0
1594888583.695,-16.602,207.031,-427.246,-66.895,0
1594888583.699,-17.090,412.598,-298.340,-72.754,0
1594888583.703,-24.414,80.078,-304.199,-74.219,0
1594888583.707,-17.578,-149.902,-355.469,-72.266,0
1594888583.700,-1.465,65.918,-244.629,-75.684,0
1594888583.704,4.883,150.391,-196.289,-77.637,0
1594888583.708,-2.441,-179.199,-345.215,-81.543,0
1594888583.712,-10.742,-136.719,-355.957,-80.566,0
1594888583.716,-16.602,-246.582,-447.266,-65.918,0
1594888583.720,-24.902,-112.793,-426.758,-67.383,0
1594888583.724,-34.180,86.426,-361.816,-68.359,0
1594888583.727,-37.109,82.031,-297.363,-51.758,0
1594888583.731,-33.203,208.496,-155.762,-41.992,0
1594888583.735,-34.668,-398.438,-469.238,-34.180,0
1594888583.739,-38.086,-281.738,-532.715,-27.832,0
1594888583.743,-35.645,307.129,-270.996,-31.738,0
1594888583.756,-26.855,204.590,-196.777,-35.156,0
1594888583.760,-28.320,-18.555,-250.488,-33.691,0
1594888583.764,-33.203,-203.125,-401.855,-37.598,0
1594888583.768,-36.621,-27.344,-327.637,-42.969,0
1594888583.772,-33.691,5.859,-324.707,-46.387,0
1594888583.776,-20.996,-57.617,-340.332,-52.246,0
1594888583.780,-21.973,-309.570,-518.066,-56.641,0
1594888583.783,-25.391,-345.215,-647.949,-54.199,0
1594888583.787,-17.578,208.008,-371.582,-53.223,0
1594888583.791,-5.371,328.125,-234.863,-55.664,0
1594888583.795,2.441,154.785,-222.168,-53.223,0
1594888583.799,-2.930,-325.195,-471.680,-48.340,0
1594888583.794,-9.766,-178.223,-458.008,-47.852,0
1594888583.798,-7.812,286.621,-206.543,-57.617,0
1594888583.802,0.488,-86.914,-347.656,-57.129,0
1594888583.806,-4.395,-154.297,-392.090,-48.340,0
1594888583.810,-9.766,-246.094,-483.398,-39.062,0
1594888583.814,-5.371,-119.141,-458.008,-40.527,0
1594888583.818,-2.930,257.812,-233.887,-54.199,0
1594888583.821,-12.207,114.746,-290.527,-57.129,0
1594888583.825,-15.137,-21.973,-317.383,-50.293,0
1594888583.829,-15.625,-355.469,-480.957,-48.828,0
1594888583.833,-13.184,-108.887,-458.496,-57.129,0
1594888583.837,-14.160,207.031,-305.664,-65.430,0
1594888583.835,-16.602,104.004,-334.473,-66.895,0
1594888583.839,-11.230,-22.949,-348.633,-63.477,0
1594888583.843,-12.207,-167.969,-411.133,-53.711,0
1594888583.847,-15.137,201.172,-307.617,-54.199,0
1594888583.851,-21.973,232.422,-335.938,-59.082,0
1594888583.855,-28.320,79.590,-384.766,-65.918,0
1594888583.859,-23.926,65.430,-370.605,-66.406,0
1594888583.862,-25.391,159.180,-396.484,-61.523,0
1594888583.866,-31.738,424.805,-287.598,-71.289,0
1594888583.870,-34.180,334.473,-270.508,-62.012,0
1594888583.874,-30.273,206.543,-263.672,-52.734,0
1594888583.878,-21.484,42.480,-285.156,-52.246,0
1594888583.889,-20.996,57.617,-304.688,-46.387,0
1594888583.893,-20.996,78.125,-356.445,-54.688,0
1594888583.897,-15.625,-20.508,-403.809,-65.918,0
1594888583.901,-7.324,155.273,-315.430,-60.059,0
1594888583.905,-8.301,-42.480,-436.035,-50.781,0
1594888583.909,-13.672,-171.387,-588.867,-54.199,0
1594888583.913,-9.277,352.051,-408.691,-59.082,0
1594888583.916,0.000,534.180,-208.984,-51.758,0
1594888583.920,-3.906,229.004,-226.074,-60.547,0
1594888583.924,-17.090,-183.594,-454.590,-67.383,0
1594888583.928,-16.113,135.254,-351.562,-65.430,0
1594888583.932,0.000,377.930,-224.121,-63.477,0
1594888583.944,5.859,244.629,-195.801,-60.059,0
1594888583.948,-5.371,-78.125,-359.375,-62.012,0
1594888583.952,-23.926,-119.629,-453.125,-56.641,0
1594888583.956,-33.203,222.168,-255.859,-51.270,0
1594888583.960,-30.762,63.965,-310.059,-56.152,0
1594888583.964,-32.227,31.738,-320.312,-57.617,0
1594888583.968,-34.668,-101.074,-465.332,-54.688,0
1594888583.971,-28.320,-281.250,-631.348,-48.340,0
1594888583.975,-21.973,263.672,-320.801,-49.805,0
1594888583.979,-25.879,400.879,-209.961,-50.293,0
1594888583.983,-22.461,66.895,-349.609,-46.875,0
1594888583.987,-12.695,-86.426,-357.422,-50.781,0
1594888583.981,-5.859,109.863,-218.750,-55.664,0
1594888583.985,-4.883,85.449,-292.480,-56.152,0
1594888583.989,-7.812,-99.609,-383.301,-57.129,0
1594888583.993,-4.883,-69.336,-391.113,-56.641,0
1594888583.997,2.930,-110.352,-443.359,-53.711,0
1594888584.001,-1.953,-11.230,-416.992,-60.059,0
1594888584.005,-8.301,130.371,-345.215,-67.383,0
1594888584.008,-12.695,62.500,-375.000,-66.895,1
1594888584.012,-8.789,159.180,-272.949,-68.359,0
1594888584.016,-4.883,-288.086,-438.477,-63.477,0
1594888584.020,-9.766,-178.223,-479.492,-62.012,0
1594888584.024,-10.254,333.984,-271.484,-65.918,0
1594888584.038,-7.324,195.312,-235.352,-59.082,0
1594888584.042,-3.418,-22.949,-280.273,-45.898,0
1594888584.046,-7.812,-105.469,-348.633,-46.387,0
1594888584.050,-14.648,46.387,-284.180,-49.805,0
1594888584.054,-20.508,-109.863,-377.441,-48.828,0
1594888584.058,-18.555,-113.770,-401.855,-44.434,0
1594888584.062,-14.648,-125.488,-467.773,-44.434,0
1594888584.065,-25.879,-73.730,-503.418,-47.363,0
1594888584.069,-24.414,275.391,-275.879,-50.293,0
1594888584.073,-9.766,144.531,-302.734,-54.688,0
1594888584.077,-7.324,52.734,-304.688,-51.758,0
1594888584.081,-24.902,-167.480,-383.789,-47.852,0
1594888584.075,-33.691,-167.969,-449.707,-51.758,0
1594888584.079,-29.297,181.152,-257.324,-54.199,0
1594888584.083,-24.902,54.199,-232.422,-54.199,0
1594888584.087,-28.320,-62.988,-312.500,-52.734,0
1594888584.091,-29.297,-267.090,-467.285,-51.758,0
1594888584.095,-18.066,-113.281,-427.734,-54.688,0
1594888584.099,-9.277,287.109,-145.020,-58.594,0
1594888584.102,-10.742,202.148,-50.293,-57.617,0
1594888584.106,-15.137,-39.551,-193.359,-51.758,0
1594888584.110,-9.277,-414.062,-441.895,-50.293,0
1594888584.114,-2.930,25.391,-273.926,-53.223,0
1594888584.118,-3.418,297.852,-122.070,-51.270,0
1594888584.116,-7.324,-140.137,-335.938,-52.734,0
1594888584.120,-10.254,-238.770,-399.902,-58.594,0
1594888584.124,-13.184,-20.508,-319.824,-63.477,0
1594888584.128,-8.301,288.574,-124.023,-61.035,0
1594888584.132,-1.465,29.785,-206.055,-60.547,0
1594888584.136,-10.742,-163.086,-336.426,-70.801,0
1594888584.140,-18.066,-227.051,-425.781,-67.871,0
1594888584.143,-7.812,-160.156,-446.777,-56.152,0
1594888584.147,-12.695,316.895,-187.012,-52.246,0
1594888584.151,-30.762,205.078,-187.500,-48.340,0
1594888584.155,-24.414,28.809,-210.938,-46.387,0
1594888584.159,-8.301,-55.664,-228.027,-44.922,0
1594888584.169,-5.859,-54.688,-268.066,-44.434,0
1594888584.173,-10.742,8.789,-297.852,-48.340,0
1594888584.177,-11.719,-142.578,-351.074,-44.434,0
1594888584.181,-3.906,-88.867,-335.938,-42.480,0
1594888584.185,-4.883,-343.262,-562.500,-43.945,0
1594888584.189,-15.625,-348.145,-647.949,-52.734,0
1594888584.193,-19.531,192.871,-406.738,-61.035,0
1594888584.196,-20.996,259.766,-334.961,-62.988,0
1594888584.200,-16.113,120.117,-363.770,-63.965,0
1594888584.204,-16.113,-240.234,-459.473,-56.641,0
1594888584.208,-20.508,11.719,-367.676,-57.129,0
1594888584.212,-20.996,270.020,-316.895,-62.988,0
1594888584.225,-10.254,115.234,-280.762,-54.199,0
1594888584.229,-5.371,-67.383,-297.852,-50.293,0
1594888584.233,-12.695,-256.836,-437.500,-53.711,0
1594888584.237,-2.441,21.484,-340.332,-46.875,0
1594888584.241,2.441,70.312,-274.414,-46.875,0
1594888584.245,-2.441,-50.293,-292.969,-49.805,0
1594888584.249,-3.906,-194.824,-438.965,-49.805,0
1594888584.252,-3.906,-358.887,-562.500,-46.387,0
1594888584.256,4.883,220.703,-270.996,-40.039,0
1594888584.260,1.465,402.344,-160.156,-43.945,0
1594888584.264,-13.672,12.207,-276.855,-54.688,0
1594888584.268,-15.625,-226.074,-366.699,-56.152,0
1594888584.263,-9.277,12.695,-276.855,-48.828,0
1594888584.267,-12.207,277.832,-127.930,-51.270,0
1594888584.271,-17.578,-51.270,-255.371,-52.246,0
1594888584.275,-19.043,-95.215,-374.023,-50.293,0
1594888584.279,-21.484,-146.484,-467.285,-53.711,0
1594888584.283,-16.113,-2.930,-395.508,-56.152,0
1594888584.287,-6.836,414.551,-184.570,-58.105,0
1594888584.290,-7.324,192.871,-293.945,-56.641,0
1594888584.294,-3.906,45.898,-315.918,-51.758,0
1594888584.298,8.301,-280.273,-459.961,-45.410,0
1594888584.302,8.789,-31.738,-426.758,-54.199,0
1594888584.306,1.953,447.266,-237.305,-67.383,0
1594888584.303,-9.766,234.375,-248.047,-67.871,0
1594888584.307,-9.277,-1.465,-297.363,-62.988,0
1594888584.311,-13.672,-24.414,-321.777,-64.453,0
1594888584.315,-17.578,189.453,-206.543,-72.266,0
1594888584.319,-17.090,-18.555,-316.895,-73.242,0
1594888584.323,-20.996,-104.492,-370.605,-61.035,0
1594888584.327,-15.137,-123.047,-426.758,-52.246,0
1594888584.330,-15.625,-65.918,-471.680,-66.406,0
1594888584.334,-22.461,301.758,-299.805,-73.242,0
1594888584.338,-11.230,282.715,-252.441,-63.477,0
1594888584.342,1.953,147.949,-262.207,-70.312,0
1594888584.346,-2.441,-114.258,-339.355,-68.359,0
1594888584.358,-10.742,-117.188,-353.516,-54.199,0
1594888584.362,-15.625,240.234,-248.535,-50.293,0
1594888584.366,-21.973,87.402,-261.230,-52.734,0
1594888584.370,-18.066,-76.172,-325.195,-59.082,0
1594888584.374,-7.812,-326.172,-511.230,-59.082,0
1594888584.378,-22.949,-325.684,-598.145,-65.430,0
1594888584.382,-33.203,367.676,-326.172,-66.895,0
1594888584.385,-29.297,469.238,-180.176,-60.547,0
1594888584.389,-45.898,-20.508,-324.707,-66.895,0
1594888584.393,-51.758,-410.645,-520.020,-63.477,0
1594888584.397,-53.223,-39.062,-450.684,-63.965,0
1594888584.401,-54.688,236.328,-347.656,-66.895,0
1594888584.413,-39.551,119.629,-313.477,-70.312,0
1594888584.417,-37.598,-108.398,-454.102,-74.219,0
1594888584.421,-37.598,-193.359,-519.531,-68.848,0
1594888584.425,-27.832,118.652,-357.910,-65.918,0
1594888584.429,-24.902,162.598,-305.176,-70.801,0
1594888584.433,-27.832,-127.930,-453.613,-79.102,0
1594888584.437,-21.484,-332.031,-614.258,-75.195,0
1594888584.440,-9.766,-352.539,-619.141,-67.871,0
1594888584.444,-11.719,188.965,-383.301,-66.406,0
1594888584.448,-16.113,297.363,-345.215,-65.430,0
1594888584.452,-21.973,57.617,-376.953,-68.848,0
1594888584.456,-18.555,-163.086,-420.410,-67.383,0
1594888584.450,-12.207,-20.508,-339.355,-73.730,0
1594888584.454,-14.648,188.477,-285.156,-80.566,0
1594888584.458,-14.648,-172.852,-470.703,-73.242,0
1594888584.462,-17.090,-122.559,-425.781,-69.336,0
1594888584.466,-23.438,-151.855,-450.684,-61.523,0
1594888584.470,-34.668,-118.164,-498.047,-53.711,0
1594888584.474,-42.480,40.527,-452.637,-51.270,0
1594888584.477,-44.922,112.793,-365.234,-53.223,0
1594888584.481,-31.250,240.234,-253.418,-54.199,0
1594888584.485,-24.902,-447.266,-568.848,-51.270,0
1594888584.489,-41.016,-384.766,-639.160,-51.758,0
1594888584.493,-45.898,416.504,-308.105,-56.641,0
1594888584.507,-32.227,436.035,-184.082,-62.500,0
1594888584.511,-21.484,116.699,-231.934,-69.336,0
1594888584.515,-26.855,-234.375,-408.203,-73.730,0
1594888584.519,-29.297,-74.219,-356.934,-74.707,0
1594888584.523,-15.137,16.602,-312.988,-67.871,0
1594888584.527,-13.184,-111.328,-380.859,-75.195,0
1594888584.531,-14.160,-218.262,-472.656,-69.336,0
1594888584.534,-10.254,-175.293,-529.297,-57.129,0
1594888584.538,-13.672,134.277,-381.836,-65.918,0
1594888584.542,-10.254,259.766,-292.969,-65.918,0
1594888584.546,-10.254,235.352,-265.137,-62.012,0
1594888584.550,-15.137,-286.133,-478.516,-58.105,0
1594888584.544,-19.043,-258.789,-520.020,-62.988,0
1594888584.548,-15.625,175.781,-333.496,-61.035,0
1594888584.552,-14.648,45.898,-332.520,-56.641,0
1594888584.556,-17.578,-56.152,-384.766,-59.082,0
1594888584.560,-21.484,-254.883,-490.234,-55.176,0
1594888584.564,-23.926,-73.730,-407.715,-50.293,0
1594888584.568,-15.625,346.191,-248.535,-52.246,0
1594888584.571,-15.137,278.320,-264.160,-48.828,0
1594888584.575,-26.367,94.727,-320.312,-57.617,0
1594888584.579,-21.973,-279.785,-468.750,-53.223,0
1594888584.583,-14.160,90.820,-325.195,-47.852,0
1594888584.587,-22.461,235.840,-281.738,-62.988,0
1594888584.585,-26.855,73.242,-312.500,-61.523,0
1594888584.589,-19.531,52.246,-316.406,-55.176,0
1594888584.593,-15.137,-129.395,-396.973,-60.059,0
1594888584.597,-23.926,158.203,-289.062,-76.660,0
1594888584.601,-31.250,103.516,-336.914,-78.613,0
1594888584.605,-24.414,-71.777,-404.785,-69.336,0
1594888584.609,-12.207,-153.809,-485.352,-66.406,0
1594888584.612,-13.184,-59.570,-508.301,-61.035,0
1594888584.616,-19.531,315.430,-345.215,-60.059,0
1594888584.620,-16.602,291.016,-308.594,-62.988,0
1594888584.624,-6.836,265.625,-229.980,-64.941,0
1594888584.628,-17.090,74.707,-273.438,-66.895,0
1594888584.639,-31.250,47.363,-306.152,-62.012,0
1594888584.643,-28.320,111.816,-300.293,-58.105,0
1594888584.647,-21.484,-27.344,-295.898,-60.059,0
1594888584.651,-8.789,-14.648,-272.461,-55.664,0
1594888584.655,-13.672,-345.703,-475.098,-53.711,0
1594888584.659,-25.879,-424.805,-590.332,-47.363,0
1594888584.663,-32.227,252.930,-343.262,-50.781,0
1594888584.666,-37.109,474.609,-164.062,-60.547,0
1594888584.670,-40.527,211.426,-217.773,-60.547,0
1594888584.674,-47.852,-204.590,-431.152,-50.293,0
1594888584.678,-50.781,145.996,-308.594,-51.758,0
1594888584.682,-38.086,433.105,-214.844,-53.711,0
1594888584.694,-36.621,244.141,-251.953,-52.246,0
1594888584.698,-41.992,119.141,-302.246,-55.664,0
1594888584.702,-43.457,27.832,-363.281,-55.176,0
1594888584.706,-39.551,244.141,-246.582,-68.359,0
1594888584.710,-26.367,137.207,-333.008,-71.289,0
1594888584.714,-18.555,-9.277,-392.578,-67.871,0
1594888584.718,-20.508,-85.449,-456.055,-67.383,0
1594888584.721,-23.926,-290.039,-630.371,-63.477,0
1594888584.725,-23.926,346.191,-296.875,-61.523,0
1594888584.729,-24.902,523.438,-154.785,-61.523,0
1594888584.733,-27.344,130.859,-294.922,-60.547,0
1594888584.737,-23.926,-41.504,-307.129,-48.340,0
1594888584.731,-15.625,94.238,-248.535,-49.805,0
1594888584.735,-6.348,170.410,-280.273,-59.570,0
1594888584.739,-11.230,-140.137,-398.926,-58.105,0
1594888584.743,-13.184,-39.551,-353.516,-61.523,0
1594888584.747,-7.324,-182.617,-464.355,-62.988,0
1594888584.751,-13.184,-29.297,-409.668,-60.059,0
1594888584.755,-24.902,315.430,-245.117,-61.523,0
1594888584.758,-33.691,-68.848,-430.664,-63.477,0
1594888584.762,-26.367,-44.434,-401.367,-64.941,0
1594888584.766,-28.809,-271.973,-515.625,-67.383,0
1594888584.770,-38.574,-145.996,-528.809,-62.500,0
1594888584.774,-40.039,455.078,-250.488,-61.523,0
1594888584.788,-41.016,267.578,-236.328,-65.918,0
1594888584.792,-28.320,15.137,-270.020,-54.688,0
1594888584.796,-21.484,-61.523,-309.082,-49.805,0
1594888584.800,-32.227,47.852,-293.457,-52.246,0
1594888584.804,-38.086,-64.941,-343.262,-48.828,0
1594888584.808,-28.320,-42.969,-317.871,-48.340,0
1594888584.812,-23.926,-213.379,-457.031,-45.898,0
1594888584.815,-28.320,-318.848,-552.734,-49.805,0
1594888584.819,-37.598,228.516,-289.551,-60.059,0
1594888584.823,-40.527,276.367,-253.418,-64.941,0
1594888584.827,-39.062,26.367,-281.250,-71.777,0
1594888584.831,-42.969,-398.926,-499.023,-74.707,0
1594888584.825,-49.316,-150.879,-458.008,-76.172,0
1594888584.829,-46.875,340.332,-214.355,-68.848,0
1594888584.833,-42.480,5.371,-302.734,-60.059,0
1594888584.837,-41.504,-67.383,-333.496,-62.988,0
1594888584.841,-38.086,-331.055,-507.324,-56.641,0
1594888584.845,-41.016,-298.828,-536.621,-57.617,0
1594888584.849,-34.180,343.750,-232.910,-59.570,0
1594888584.852,-26.367,258.301,-240.723,-59.082,0
1594888584.856,-34.668,-16.113,-316.406,-65.430,0
1594888584.860,-35.156,-453.125,-494.629,-64.453,0
1594888584.864,-26.855,-145.996,-422.852,-65.918,0
1594888584.868,-35.645,333.984,-238.281,-65.918,0
1594888584.866,-54.199,126.465,-254.883,-68.359,0
1594888584.870,-52.734,-190.430,-368.652,-71.289,0
1594888584.874,-51.758,-187.988,-394.043,-77.637,0
1594888584.878,-58.594,235.840,-206.543,-78.613,0
1594888584.882,-53.223,72.266,-283.691,-77.148,0
1594888584.886,-53.223,-195.801,-392.578,-78.613,0
1594888584.890,-45.410,-265.137,-485.352,-72.754,0
1594888584.893,-32.715,-114.746,-448.242,-67.383,2
1594888584.897,-32.227,291.504,-230.957,-59.570,0
1594888584.901,-40.039,179.199,-271.973,-61.035,0
1594888584.905,-41.504,-38.086,-333.984,-68.359,0
1594888584.909,-29.785,-116.211,-299.316,-59.570,0
1594888584.919,-36.621,3.418,-247.070,-56.641,0
1594888584.923,-51.270,5.859,-332.031,-62.500,0
1594888584.927,-52.734,-242.676,-428.223,-63.965,0
1594888584.931,-44.922,-143.066,-384.277,-63.965,0
1594888584.935,-32.715,-263.672,-479.492,-57.129,0
1594888584.939,-27.832,-440.430,-608.887,-53.223,0
1594888584.943,-31.738,224.121,-375.000,-71.289,0
1594888584.946,-24.902,487.793,-221.191,-77.637,0
1594888584.950,-19.531,165.527,-266.113,-67.383,0
1594888584.954,-16.602,-107.422,-343.262,-66.406,0
1594888584.958,-23.926,5.859,-324.219,-65.430,0
1594888584.962,-28.320,84.961,-306.152,-62.012,0
1594888584.975,-17.578,131.836,-225.098,-62.988,0
1594888584.979,-16.113,-104.004,-327.637,-63.477,0
1594888584.983,-27.832,-284.180,-432.129,-62.988,0
1594888584.987,-26.855,-7.324,-306.641,-57.617,0
1594888584.991,-17.090,24.414,-287.109,-48.828,0
1594888584.995,-17.090,-72.754,-321.777,-46.875,0
1594888584.999,-22.461,-323.730,-502.441,-52.734,0
1594888585.002,-31.738,-550.781,-647.949,-54.199,0
1594888585.006,-22.461,132.324,-336.914,-46.387,0
1594888585.010,-15.625,467.285,-196.777,-53.223,0
1594888585.014,-25.879,103.516,-284.668,-63.965,0
1594888585.018,-23.438,-194.336,-351.074,-59.570,0
1594888585.013,-14.648,-3.906,-268.555,-72.754,0
1594888585.017,-1.953,341.797,7.812,-76.660,0
1594888585.021,-2.930,-102.539,-207.031,-61.523,0
1594888585.025,-15.137,-265.625,-435.059,-58.594,0
1594888585.029,-21.973,-350.586,-486.328,-48.828,0
1594888585.033,-18.555,-216.797,-475.098,-48.828,0
1594888585.037,-10.742,169.922,-342.773,-49.805,0
1594888585.040,-16.113,156.738,-339.844,-47.363,0
1594888585.044,-24.414,182.129,-303.711,-57.129,0
1594888585.048,-29.297,-291.992,-448.730,-61.035,0
1594888585.052,-30.273,-151.855,-437.012,-63.477,0
1594888585.056,-34.180,320.312,-302.734,-68.359,0
1594888585.053,-42.969,211.914,-280.273,-64.453,0
1594888585.057,-39.062,57.129,-276.367,-55.664,0
1594888585.061,-35.156,-70.312,-292.480,-50.781,0
1594888585.065,-41.504,159.180,-211.914,-49.805,0
1594888585.069,-45.898,12.695,-333.496,-49.316,0
1594888585.073,-42.969,-116.211,-366.211,-52.246,0
1594888585.077,-36.133,-140.137,-413.574,-44.922,0
1594888585.080,-30.762,-247.559,-529.297,-38.086,0
1594888585.084,-30.273,199.707,-332.520,-48.340,0
1594888585.088,-27.344,244.141,-305.664,-48.828,0
1594888585.092,-13.184,177.734,-261.230,-48.828,0
1594888585.096,-11.230,24.414,-279.297,-59.570,0
1594888585.108,-17.578,-207.520,-440.430,-62.012,0
1594888585.112,-11.719,-7.812,-415.527,-59.082,0
1594888585.116,-0.488,105.957,-317.383,-54.688,0
1594888585.120,0.977,119.141,-277.344,-59.570,0
1594888585.124,-4.883,-224.609,-482.910,-61.035,0
1594888585.128,-1.465,-354.004,-611.816,-47.363,0
1594888585.132,5.371,312.500,-341.797,-50.293,0
1594888585.135,2.930,575.195,-155.273,-47.852,0
1594888585.139,-16.602,262.207,-238.281,-42.969,0
1594888585.143,-38.574,-346.191,-456.543,-43.945,0
1594888585.147,-40.039,-63.477,-340.820,-45.898,0
1594888585.151,-25.391,322.266,-245.605,-47.363,0
1594888585.163,-16.602,133.789,-278.809,-57.617,0
1594888585.167,-18.555,-138.672,-397.949,-62.500,0
1594888585.171,-10.254,-101.562,-391.602,-62.012,0
1594888585.175,-4.883,175.293,-256.836,-61.035,0
1594888585.179,-14.160,27.344,-339.844,-67.871,0
1594888585.183,-12.695,-102.539,-413.086,-74.219,0
1594888585.187,-11.230,-229.492,-500.977,-65.430,0
1594888585.190,-9.766,-476.562,-661.621,-58.105,0
1594888585.194,-6.348,239.746,-345.215,-61.035,0
1594888585.198,-13.672,562.012,-180.664,-59.570,0
1594888585.202,-31.250,104.492,-342.285,-55.176,0
1594888585.206,-33.203,-37.109,-282.715,-55.176,0
1594888585.200,-22.461,7.324,-249.023,-43.457,0
1594888585.204,-23.438,91.797,-309.082,-39.062,0
1594888585.208,-26.367,-121.582,-418.945,-41.504,0
1594888585.212,-26.855,-52.246,-416.504,-41.504,0
1594888585.216,-19.531,-75.195,-402.832,-41.016,0
1594888585.220,-20.996,-55.664,-418.457,-39.551,0
1594888585.224,-24.414,96.680,-388.184,-46.387,0
1594888585.227,-22.949,206.055,-294.434,-43.457,0
1594888585.231,-16.602,374.512,-177.246,-36.621,0
1594888585.235,-23.438,-327.637,-485.840,-34.180,0
1594888585.239,-40.039,-313.965,-553.711,-42.480,0
1594888585.243,-34.180,413.574,-306.641,-46.875,0
1594888585.256,-28.320,452.148,-198.730,-45.898,0
1594888585.260,-26.855,96.191,-250.488,-53.223,0
1594888585.264,-27.832,-64.941,-318.359,-60.059,0
1594888585.268,-27.832,104.004,-250.000,-62.500,0
1594888585.272,-17.578,-20.508,-329.102,-65.430,0
1594888585.276,-8.301,-5.859,-290.039,-64.941,0
1594888585.280,-14.160,-145.996,-361.816,-57.617,0
1594888585.283,-21.973,-320.312,-523.926,-57.617,0
1594888585.287,-18.555,179.688,-312.500,-57.129,0
1594888585.291,-14.160,258.789,-269.531,-54.688,0
1594888585.295,-22.461,214.355,-246.094,-63.477,0
1594888585.299,-29.785,-185.547,-446.777,-62.500,0
1594888585.294,-29.297,-221.191,-496.094,-58.105,0
1594888585.298,-20.020,336.914,-212.402,-62.012,0
1594888585.302,-16.602,38.086,-293.945,-65.430,0
1594888585.306,-19.043,-54.199,-342.285,-62.012,0
1594888585.310,-18.066,-228.516,-467.773,-58.105,0
1594888585.314,-11.719,-234.375,-507.812,-61.523,0
1594888585.318,-13.672,312.988,-260.254,-60.547,0
1594888585.321,-23.438,321.777,-251.465,-56.152,0
1594888585.325,-23.926,56.641,-342.285,-58.105,0
1594888585.329,-23.926,-287.598,-467.773,-49.805,0
1594888585.333,-14.648,109.375,-317.871,-45.410,0
1594888585.337,-13.184,367.676,-235.352,-53.711,0
1594888585.335,-21.973,2.441,-362.305,-50.293,0
1594888585.339,-21.484,-53.711,-370.117,-50.293,0
1594888585.343,-10.254,-6.836,-357.910,-57.617,0
1594888585.347,-11.719,307.617,-248.047,-55.176,0
1594888585.351,-23.438,103.027,-354.492,-54.688,0
1594888585.355,-24.414,-49.316,-375.977,-59.082,0
1594888585.359,-15.137,0.977,-391.602,-61.035,0
1594888585.362,-4.883,-40.527,-422.363,-54.199,0
1594888585.366,-10.254,317.383,-283.691,-55.664,0
1594888585.370,-17.090,329.590,-291.504,-65.430,0
1594888585.374,-15.137,189.941,-254.883,-64.453,0
1594888585.378,-14.160,107.422,-209.473,-61.523,0
1594888585.388,-13.672,63.965,-235.352,-65.430,0
1594888585.392,-18.555,10.742,-317.871,-70.312,0
1594888585.396,-21.484,-190.430,-373.047,-65.430,0
1594888585.400,-15.137,9.766,-276.367,-64.941,0
1594888585.404,-9.766,-236.816,-481.934,-61.035,0
1594888585.408,-13.184,-531.250,-709.961,-53.223,0
1594888585.412,-20.996,314.941,-373.535,-62.988,0
1594888585.415,-20.996,669.434,-153.809,-61.523,0
1594888585.419,-16.602,252.930,-243.652,-55.176,0
1594888585.423,-28.809,-143.066,-385.254,-56.641,0
1594888585.427,-37.109,86.426,-272.461,-60.547,0
1594888585.431,-22.949,207.031,-223.633,-55.664,0
1594888585.444,-8.301,64.453,-259.277,-41.992,0
1594888585.448,-6.348,-98.633,-349.609,-41.992,0
1594888585.452,-13.184,-208.008,-391.602,-46.875,0
1594888585.456,-9.766,71.289,-304.688,-50.293,0
1594888585.460,-4.883,79.102,-325.195,-50.293,0
1594888585.464,-12.695,-133.789,-382.812,-53.223,0
1594888585.468,-15.625,-253.418,-501.953,-51.270,0
1594888585.471,-11.230,-442.871,-644.531,-44.922,0
1594888585.475,-10.254,210.938,-362.305,-47.363,0
1594888585.479,-8.789,502.930,-241.211,-45.898,0
1594888585.483,-16.113,177.246,-304.688,-53.711,0
1594888585.487,-15.625,-16.113,-283.203,-63.965,0
1594888585.481,-11.719,52.734,-222.656,-64.941,0
1594888585.485,-9.766,178.223,-201.172,-62.988,0
1594888585.489,-20.020,-174.805,-360.352,-61.523,0
1594888585.493,-32.227,-205.078,-419.434,-64.453,0
1594888585.497,-28.809,-341.797,-511.230,-65.918,0
1594888585.501,-28.809,-249.023,-517.578,-71.289,0
1594888585.505,-20.996,307.129,-333.008,-68.359,0
1594888585.508,-21.973,309.082,-305.176,-60.059,0
1594888585.512,-17.090,134.766,-282.715,-54.199,0
1594888585.516,-4.395,-221.191,-367.188,-49.805,0
1594888585.520,-11.230,-19.043,-355.957,-47.852,0
1594888585.524,-23.438,220.215,-316.406,-51.758,0
1594888585.537,-23.438,39.062,-323.242,-59.570,0
1594888585.541,-18.555,-54.688,-351.562,-63.477,0
1594888585.545,-19.531,-164.551,-382.812,-53.223,0
1594888585.549,-22.461,79.590,-330.078,-52.246,0
1594888585.553,-17.578,169.434,-336.914,-55.176,0
1594888585.557,-16.113,-14.160,-336.914,-48.828,0
1594888585.561,-17.090,-243.652,-471.191,-43.945,0
1594888585.564,-23.926,-235.840,-524.414,-39.551,0
1594888585.568,-28.809,252.930,-306.641,-39.551,0
1594888585.572,-13.184,414.062,-192.871,-33.203,0
1594888585.576,-9.766,216.797,-238.281,-29.297,0
1594888585.580,-22.949,-241.699,-435.059,-37.598,0
1594888585.576,-29.785,-162.109,-423.340,-44.434,0
1594888585.580,-26.367,254.883,-321.777,-48.340,0
1594888585.584,-16.113,-11.230,-399.902,-52.734,0
1594888585.588,-14.648,6.348,-364.746,-60.059,0
1594888585.592,-20.996,-104.980,-464.355,-57.617,0
1594888585.596,-26.367,-154.297,-501.465,-53.711,0
1594888585.600,-24.414,442.871,-205.078,-55.664,0
1594888585.603,-24.902,408.203,-188.965,-65.430,0
1594888585.607,-32.227,104.004,-293.945,-74.219,0
1594888585.611,-27.344,-402.832,-513.184,-68.848,0
1594888585.615,-14.648,0.000,-387.207,-61.035,0
1594888585.619,-12.695,526.367,-163.086,-62.988,0
1594888585.631,-21.484,233.398,-226.074,-64.941,0
1594888585.635,-25.879,11.719,-288.086,-64.941,0
1594888585.639,-19.043,-31.250,-313.965,-67.383,0
1594888585.643,-13.184,301.270,-187.500,-65.918,0
1594888585.647,-13.184,160.645,-281.738,-68.848,0
1594888585.651,-25.879,-79.102,-370.605,-65.918,0
1594888585.655,-33.691,-41.504,-375.000,-60.059,0
1594888585.658,-34.668,-240.723,-493.652,-58.594,0
1594888585.662,-40.039,230.957,-314.941,-61.035,0
1594888585.666,-48.828,487.305,-236.328,-62.988,0
1594888585.670,-47.363,155.273,-339.844,-61.035,0
1594888585.674,-27.344,-10.254,-334.473,-54.688,0
1594888585.669,-20.020,129.883,-277.344,-50.293,0
1594888585.673,-26.367,129.395,-388.184,-46.387,0
1594888585.677,-25.391,-124.023,-442.383,-39.062,0
1594888585.681,-18.066,108.887,-335.938,-38.086,0
1594888585.685,-21.973,-192.383,-503.418,-38.574,0
1594888585.689,-29.297,-262.207,-547.363,-37.598,0
1594888585.693,-29.785,166.992,-409.668,-49.316,0
1594888585.696,-27.832,207.031,-375.977,-57.129,0
1594888585.700,-17.090,335.938,-314.453,-57.129,0
1594888585.704,-22.949,-257.812,-540.039,-61.035,1
1594888585.708,-32.227,-200.684,-543.457,-58.105,0
1594888585.712,-33.203,526.855,-280.273,-59.570,0
1594888585.725,-34.668,416.992,-212.402,-62.988,0
1594888585.729,-27.832,13.672,-326.660,-62.500,0
1594888585.733,-29.297,-159.668,-419.434,-63.965,0
1594888585.737,-24.902,150.391,-267.578,-66.406,0
1594888585.741,-16.602,193.359,-265.137,-65.430,0
1594888585.745,-16.113,-41.992,-358.398,-68.848,0
1594888585.749,-25.391,-200.195,-444.824,-70.312,0
1594888585.752,-27.832,-247.070,-528.320,-62.988,0
1594888585.756,-18.555,272.461,-320.801,-57.617,0
1594888585.760,-14.648,537.109,-100.098,-58.594,0
1594888585.764,-14.648,312.988,-72.266,-57.617,0
1594888585.768,-14.160,-303.711,-421.387,-44.922,0
1594888585.763,-18.555,-349.121,-497.070,-34.668,0
1594888585.767,-21.973,335.938,-162.598,-33.691,0
1594888585.771,-29.297,15.137,-312.988,-32.715,0
1594888585.775,-44.434,-205.566,-427.734,-33.203,0
1594888585.779,-43.457,-291.504,-480.469,-35.156,0
1594888585.783,-41.016,-103.516,-429.688,-41.504,0
1594888585.787,-51.270,342.773,-255.371,-42.480,0
1594888585.790,-58.594,258.789,-274.902,-41.016,0
1594888585.794,-64.453,108.887,-297.363,-49.805,0
1594888585.798,-60.547,-343.262,-467.773,-54.688,0
1594888585.802,-47.363,-125.977,-421.387,-53.223,0
1594888585.806,-42.969,263.184,-288.086,-55.664,0
1594888585.803,-40.527,174.316,-292.969,-58.105,0
1594888585.807,-26.855,129.883,-298.340,-56.641,0
1594888585.811,-21.484,-67.383,-368.164,-65.430,0
1594888585.815,-25.879,141.113,-305.664,-68.359,0
1594888585.819,-27.832,142.578,-336.426,-58.594,0
1594888585.823,-31.738,42.480,-327.148,-58.105,0
1594888585.827,-20.996,28.809,-350.586,-60.059,0
1594888585.830,-18.555,-223.145,-490.234,-63.965,0
1594888585.834,-22.461,147.461,-348.633,-71.289,0
1594888585.838,-16.602,256.836,-313.477,-68.359,0
1594888585.842,-20.020,208.984,-245.605,-68.359,0
1594888585.846,-24.414,-10.254,-276.855,-64.453,0
1594888585.858,-23.438,-91.797,-342.773,-60.059,0
1594888585.862,-13.672,31.738,-346.191,-66.406,0
1594888585.866,-11.719,-99.121,-375.977,-70.312,0
1594888585.870,-14.160,53.711,-331.055,-66.895,0
1594888585.874,-22.461,-309.082,-550.781,-66.406,0
1594888585.878,-39.551,-499.023,-628.906,-66.895,0
1594888585.882,-46.875,249.023,-334.473,-67.871,0
1594888585.885,-37.598,592.773,-212.891,-68.359,0
1594888585.889,-35.645,294.922,-259.277,-67.383,0
1594888585.893,-49.316,-145.996,-407.715,-67.383,0
1594888585.897,-44.434,33.203,-326.660,-61.035,0
1594888585.901,-35.156,235.840,-211.914,-58.594,0
1594888585.913,-44.922,221.191,-170.410,-62.988,0
1594888585.917,-53.223,-65.918,-338.379,-58.594,0
1594888585.921,-45.898,-216.309,-384.766,-52.246,0
1594888585.925,-34.668,112.793,-250.488,-55.664,0
1594888585.929,-42.969,32.715,-312.012,-61.523,0
1594888585.933,-45.898,-136.719,-382.324,-64.453,0
1594888585.937,-44.434,-187.988,-468.262,-69.336,0
1594888585.940,-45.898,-448.730,-599.609,-64.453,0
1594888585.944,-50.781,146.973,-389.648,-59.570,0
1594888585.948,-46.875,592.285,-220.215,-64.453,0
1594888585.952,-41.016,223.633,-309.570,-66.406,0
1594888585.956,-37.598,-51.758,-339.355,-62.988,0
1594888585.950,-28.809,150.879,-216.797,-60.059,0
1594888585.954,-24.902,263.184,-231.445,-62.500,0
1594888585.958,-23.438,-46.387,-332.520,-68.848,0
1594888585.962,-20.020,-72.266,-311.523,-70.801,0
1594888585.966,-13.184,-311.523,-432.617,-61.523,0
1594888585.970,-18.555,-263.672,-474.121,-61.035,0
1594888585.974,-29.297,125.977,-383.301,-61.523,0
1594888585.977,-37.598,144.043,-313.965,-57.129,0
1594888585.981,-40.039,373.047,-177.246,-54.688,0
1594888585.985,-41.016,-133.301,-405.762,-53.223,0
1594888585.989,-43.945,-295.898,-484.863,-58.594,0
1594888585.993,-47.852,364.258,-244.629,-55.664,0
1594888586.006,-47.363,387.695,-172.363,-54.688,0
1594888586.010,-36.621,133.789,-252.441,-62.500,0
1594888586.014,-31.738,-52.734,-318.359,-61.035,0
1594888586.018,-29.785,101.562,-250.977,-55.664,0
1594888586.022,-22.949,49.805,-297.852,-56.152,0
1594888586.026,-18.066,-13.184,-286.133,-62.500,0
1594888586.030,-15.625,-180.176,-416.016,-60.059,0
1594888586.033,-12.695,-253.906,-483.398,-54.688,0
1594888586.037,-8.301,337.402,-233.398,-57.617,0
1594888586.041,-5.859,436.523,-209.473,-66.895,0
1594888586.045,-4.883,164.062,-261.230,-62.988,0
1594888586.049,-6.348,-194.824,-468.750,-51.270,0
1594888586.044,3.906,-63.477,-490.723,-44.434,0
1594888586.048,5.859,514.648,-191.895,-46.875,0
1594888586.052,-24.414,232.422,-256.348,-66.406,0
1594888586.056,-35.645,-9.766,-372.559,-67.383,0
1594888586.060,-39.062,-210.449,-537.109,-59.082,0
1594888586.064,-47.363,-23.926,-475.586,-65.430,0
1594888586.068,-64.453,445.312,-259.766,-82.520,0
1594888586.071,-76.660,432.617,-262.207,-104.004,0
1594888586.075,-94.727,314.453,-310.059,-126.465,0
1594888586.079,-112.305,-92.773,-492.188,-141.602,0
1594888586.083,-112.305,105.957,-439.453,-153.320,0
1594888586.087,-115.234,450.684,-307.617,-168.457,0
1594888586.085,-121.094,218.750,-376.465,-183.594,0
1594888586.089,-132.324,67.383,-400.391,-192.383,0
1594888586.093,-127.441,195.801,-272.949,-189.941,0
1594888586.097,-115.234,437.988,-189.453,-176.758,0
1594888586.101,-120.605,185.059,-339.355,-167.480,0
1594888586.105,-115.723,9.766,-361.816,-159.180,0
1594888586.109,-99.609,-36.133,-423.828,-149.414,0
1594888586.112,-94.238,-76.172,-490.723,-139.160,0
1594888586.116,-95.215,419.922,-247.070,-128.418,0
1594888586.120,-88.867,333.984,-278.809,-116.211,0
1594888586.124,-72.266,120.117,-313.965,-102.051,0
1594888586.128,-51.758,113.281,-252.441,-80.078,0
1594888586.138,-46.387,133.301,-242.676,-65.430,0
1594888586.142,-52.246,103.027,-319.336,-61.035,0
1594888586.146,-33.203,-94.238,-394.531,-41.992,0
1594888586.150,-9.277,103.516,-280.762,-35.156,0
1594888586.154,-16.602,-172.363,-453.125,-37.598,0
1594888586.158,-14.648,-425.293,-629.883,-18.066,0
1594888586.162,6.348,324.219,-342.773,-12.207,0
1594888586.165,20.996,530.273,-226.074,-16.602,0
1594888586.169,31.250,176.270,-323.730,-7.324,0
1594888586.173,27.344,-70.801,-406.738,1.953,0
1594888586.177,17.090,58.594,-357.910,0.000,0
1594888586.181,27.344,194.824,-298.828,-2.930,0
1594888586.196,38.086,155.273,-243.652,-11.230,0
1594888586.200,29.297,-43.457,-338.379,-11.719,0
1594888586.204,29.785,-81.543,-351.074,-20.996,0
1594888586.208,40.527,181.152,-245.605,-26.855,0
1594888586.212,32.715,115.234,-283.691,-18.066,0
1594888586.216,21.973,-135.742,-366.211,-12.695,0
1594888586.220,13.672,-271.484,-508.301,-18.555,0
1594888586.223,7.324,-468.750,-665.039,-21.484,0
1594888586.227,18.555,198.242,-372.070,-18.555,0
1594888586.231,22.461,595.703,-193.848,-21.484,0
1594888586.235,9.766,204.590,-279.297,-22.461,0
1594888586.239,7.324,-63.477,-288.574,-18.555,0
1594888586.231,10.742,-2.930,-251.465,-27.832,0
1594888586.235,14.160,179.199,-220.215,-33.691,0
1594888586.239,12.207,-136.230,-367.676,-31.250,0
1594888586.243,13.672,-152.832,-377.930,-37.109,0
1594888586.247,19.043,-301.758,-505.859,-34.668,0
1594888586.251,12.207,-236.328,-507.324,-37.109,0
1594888586.255,-0.977,254.883,-312.988,-44.434,0
1594888586.258,-12.207,222.168,-311.035,-41.504,0
1594888586.262,-7.812,183.105,-271.484,-43.457,0
1594888586.266,2.930,-389.160,-513.184,-42.969,0
1594888586.270,5.859,-241.699,-494.141,-35.645,0
1594888586.274,-2.930,489.746,-215.820,-32.227,0
1594888586.272,11.719,344.727,-203.125,-22.461,0
1594888586.276,20.508,85.449,-230.957,-25.879,0
1594888586.280,-3.906,-119.141,-311.035,-38.574,0
1594888586.284,-16.113,36.621,-299.316,-44.434,0
1594888586.288,-24.414,-10.742,-327.148,-59.082,0
1594888586.292,-16.602,-144.043,-343.262,-59.082,0
1594888586.296,-23.438,-186.523,-421.875,-76.660,0
1594888586.299,-60.059,-210.449,-505.371,-111.816,0
1594888586.303,-85.449,258.301,-333.984,-126.953,0
1594888586.307,-110.840,487.793,-191.406,-141.113,0
1594888586.311,-121.582,358.398,-137.207,-160.645,0
1594888586.315,-131.836,-103.516,-327.637,-185.059,0
1594888586.326,-151.855,-215.820,-374.512,-206.055,0
1594888586.330,-145.996,170.898,-264.160,-203.613,0
1594888586.334,-132.324,-13.184,-330.566,-183.105,0
1594888586.338,-128.906,-106.934,-346.680,-171.875,0
1594888586.342,-114.746,-351.074,-516.113,-153.320,0
1594888586.346,-89.844,-402.344,-571.289,-125.000,0
1594888586.350,-74.707,375.977,-249.023,-105.469,0
1594888586.353,-54.199,518.555,-162.598,-93.262,0
1594888586.357,-31.250,121.094,-339.844,-82.520,0
1594888586.361,-28.320,-375.488,-487.793,-70.801,0
1594888586.365,-25.879,-11.230,-297.363,-64.453,0
1594888586.369,-14.160,405.273,-187.012,-55.664,0
1594888586.381,-9.766,150.391,-236.816,-48.828,0
1594888586.385,-11.719,-62.500,-288.574,-57.129,0
1594888586.389,-0.488,-222.656,-366.699,-56.641,0
1594888586.393,11.719,-73.242,-300.781,-36.133,0
1594888586.397,9.766,156.738,-203.613,-20.508,0
1594888586.401,13.672,-47.363,-335.938,-18.066,0
1594888586.405,23.926,-185.547,-433.594,-19.531,0
1594888586.408,30.273,-341.797,-504.395,-20.508,0
1594888586.412,28.320,100.098,-338.379,-28.320,0
1594888586.416,28.320,406.738,-249.023,-24.414,0
1594888586.420,33.203,67.383,-344.238,-20.996,0
1594888586.424,35.156,-100.586,-336.914,-30.762,0
1594888586.419,29.297,24.902,-274.902,-36.133,0
1594888586.423,21.484,150.391,-276.855,-35.156,0
1594888586.427,17.090,-113.770,-362.305,-34.180,0
1594888586.431,23.438,106.445,-245.117,-34.668,0
1594888586.435,25.879,-143.555,-378.906,-31.738,0
1594888586.439,23.926,-387.695,-547.852,-28.809,0
1594888586.443,21.484,-17.090,-441.895,-30.762,0
1594888586.446,8.789,151.367,-348.633,-33.691,0
1594888586.450,2.441,331.543,-241.699,-34.180,0
1594888586.454,4.395,-415.039,-541.992,-29.297,0
1594888586.458,0.977,-360.840,-557.129,-34.180,0
1594888586.462,-2.441,402.832,-268.066,-48.828,0
1594888586.475,1.953,291.992,-217.773,-49.805,0
1594888586.479,2.930,33.203,-256.836,-45.898,0
1594888586.483,-0.488,-274.414,-397.461,-39.551,0
1594888586.487,-1.465,-20.996,-333.496,-36.133,0
1594888586.491,4.883,136.719,-325.684,-39.551,0
1594888586.495,-0.977,-27.832,-374.512,-42.969,0
1594888586.499,-8.789,-124.023,-430.176,-36.133,0
1594888586.502,2.441,-252.441,-500.977,-37.109,2
1594888586.506,6.348,119.141,-326.172,-53.223,0
1594888586.510,2.930,351.562,-215.332,-55.176,0
1594888586.514,-2.930,296.387,-177.734,-52.734,0
1594888586.518,-6.836,-214.844,-398.926,-41.992,0
1594888586.513,-8.301,-258.789,-446.289,-38.086,0
1594888586.517,-5.859,236.816,-205.078,-47.363,0
1594888586.521,-12.695,-46.875,-283.203,-54.688,0
1594888586.525,-28.809,-144.531,-352.539,-56.641,0
1594888586.529,-29.297,-282.227,-457.031,-55.176,0
1594888586.533,-11.719,-307.129,-489.258,-47.363,0
1594888586.537,-1.465,220.703,-287.598,-47.852,0
1594888586.540,-7.324,190.430,-341.797,-65.918,0
1594888586.544,-8.789,116.699,-333.008,-60.547,0
1594888586.548,-10.742,-325.195,-458.984,-41.992,0
1594888586.552,-12.207,-152.832,-438.477,-42.480,0
1594888586.556,-10.254,234.863,-321.777,-57.617,0
1594888586.553,-11.230,102.051,-327.148,-62.500,0
1594888586.557,-5.371,174.805,-254.883,-48.828,0
1594888586.561,1.465,-85.449,-337.402,-41.016,0
1594888586.565,-0.488,16.113,-332.520,-50.293,0
1594888586.569,-10.742,83.496,-350.586,-48.340,0
1594888586.573,-7.812,-0.488,-353.027,-42.969,0
1594888586.577,-1.465,-134.277,-397.949,-46.387,0
1594888586.580,-6.836,-274.414,-478.027,-46.875,0
1594888586.584,-12.695,138.672,-328.125,-57.129,0
1594888586.588,-9.277,340.332,-255.371,-66.406,0
1594888586.592,-1.465,231.934,-239.258,-68.848,0
1594888586.596,1.953,-60.059,-303.223,-77.148,0
1594888586.606,8.789,-116.211,-348.145,-75.195,0
1594888586.610,12.207,33.203,-318.359,-68.848,0
1594888586.614,9.277,-121.094,-346.680,-66.895,0
1594888586.618,5.371,-42.480,-356.934,-65.918,0
1594888586.622,-12.207,-267.090,-512.695,-62.500,0
1594888586.626,-17.578,-410.156,-579.102,-58.105,0
1594888586.630,-12.695,281.250,-324.707,-56.152,0
1594888586.633,-9.766,548.828,-178.711,-45.410,0
1594888586.637,-16.602,340.332,-208.008,-47.363,0
1594888586.641,-30.273,-189.453,-383.789,-54.688,0
1594888586.645,-23.926,-60.547,-319.824,-49.316,0
1594888586.649,-15.625,320.312,-196.289,-49.316,0
1594888586.663,-18.555,134.277,-241.699,-51.758,0
1594888586.667,-15.137,-29.785,-340.332,-47.852,0
1594888586.671,-12.695,-41.504,-388.672,-46.387,0
1594888586.675,-16.113,308.105,-220.703,-48.340,0
1594888586.679,-19.043,325.195,-221.680,-52.246,0
1594888586.683,-20.996,129.395,-307.129,-55.176,0
1594888586.687,-23.438,-42.969,-403.320,-53.223,0
1594888586.690,-21.484,-312.012,-554.199,-47.852,0
1594888586.694,-13.184,249.512,-360.840,-44.434,0
1594888586.698,-4.883,576.172,-244.141,-50.293,0
1594888586.702,-10.254,309.570,-287.109,-57.617,0
1594888586.706,-4.883,53.711,-346.191,-45.410,0
1594888586.700,3.906,144.043,-269.531,-42.480,0
1594888586.704,-0.977,323.242,-209.473,-46.387,0
1594888586.708,-10.254,-105.957,-392.090,-45.898,0
1594888586.712,-21.973,-128.906,-394.531,-52.734,0
1594888586.716,-18.555,-203.613,-454.590,-50.781,0
1594888586.720,-20.508,-197.266,-488.770,-41.504,0
1594888586.724,-36.621,161.621,-355.957,-42.480,0
1594888586.727,-38.574,270.508,-297.852,-48.340,0
1594888586.731,-30.762,192.871,-315.918,-49.316,0
1594888586.735,-26.855,-337.891,-518.555,-46.875,0
1594888586.739,-28.320,-226.562,-503.906,-49.805,0
1594888586.743,-28.320,485.352,-267.578,-54.688,0
1594888586.756,-32.227,461.914,-203.125,-55.664,0
1594888586.760,-29.297,172.852,-229.492,-48.828,0
1594888586.764,-30.762,-28.320,-300.781,-56.641,0
1594888586.768,-40.527,23.926,-290.039,-65.430,0
1594888586.772,-30.273,-48.340,-330.566,-57.617,0
1594888586.776,-25.879,-42.480,-306.641,-59.082,0
1594888586.780,-26.367,-145.020,-391.113,-61.035,0
1594888586.783,-27.344,-357.422,-526.855,-57.129,0
1594888586.787,-30.762,191.406,-286.133,-62.500,0
1594888586.791,-26.367,458.984,-174.316,-60.059,0
1594888586.795,-29.297,167.969,-255.859,-52.734,0
1594888586.799,-32.715,-312.012,-491.699,-48.828,0
1594888586.795,-30.762,-242.188,-479.004,-47.363,0
1594888586.799,-28.320,438.965,-40.527,-51.758,0
1594888586.803,-24.414,94.727,-175.293,-52.734,0
1594888586.807,-27.832,-137.695,-360.840,-42.480,0
1594888586.811,-36.133,-224.609,-418.945,-41.992,0
1594888586.815,-32.715,-281.250,-482.910,-51.270,0
1594888586.819,-25.391,309.570,-212.891,-59.570,0
1594888586.822,-27.344,332.520,-221.191,-62.500,0
1594888586.826,-20.020,33.203,-371.094,-45.410,0
1594888586.830,-16.113,-415.039,-533.203,-34.668,0
1594888586.834,-35.645,-53.223,-355.957,-64.453,0
1594888586.838,-21.973,505.371,-155.273,-69.824,0
1594888586.850,-14.160,130.371,-322.266,-59.570,0
1594888586.854,-30.273,-87.891,-361.328,-67.871,0
1594888586.858,-21.973,-50.293,-327.148,-61.523,0
1594888586.862,-24.902,123.535,-305.664,-68.848,0
1594888586.866,-30.762,24.414,-396.484,-69.336,0
1594888586.870,-20.996,-90.820,-417.969,-59.082,0
1594888586.874,-11.230,-144.043,-459.473,-54.688,0
1594888586.877,-5.371,-143.066,-485.840,-50.781,0
1594888586.881,-5.371,280.273,-313.477,-55.176,0
1594888586.885,-15.137,359.375,-306.152,-47.852,0
1594888586.889,-18.555,233.398,-298.828,-41.992,0
1594888586.893,-17.090,-132.812,-433.105,-36.621,0
1594888586.888,-22.461,-194.336,-465.820,-43.945,0
1594888586.892,-20.508,259.277,-314.941,-56.152,0
1594888586.896,-14.648,25.391,-401.855,-46.875,0
1594888586.900,-10.254,187.988,-254.395,-50.293,0
1594888586.904,-9.277,-120.117,-424.805,-60.059,0
1594888586.908,-20.020,-469.727,-616.211,-62.500,0
1594888586.912,-19.043,168.457,-362.793,-56.152,0
1594888586.915,-17.578,537.109,-185.059,-50.293,0
1594888586.919,-21.973,380.371,-236.328,-58.594,0
1594888586.923,-26.855,-344.238,-503.906,-62.500,0
1594888586.927,-27.344,-209.473,-457.520,-64.941,0
1594888586.931,-22.949,323.730,-277.832,-67.871,0
1594888586.944,-30.273,340.332,-200.195,-76.660,0
1594888586.948,-29.785,134.277,-253.418,-79.590,0
1594888586.952,-28.320,-152.344,-370.117,-65.918,0
1594888586.956,-26.855,84.473,-281.250,-62.988,0
1594888586.960,-20.996,150.879,-265.625,-67.383,0
1594888586.964,-23.438,-143.555,-398.438,-68.848,0
1594888586.968,-22.949,-320.801,-533.691,-61.035,0
1594888586.971,-18.066,-336.914,-484.863,-52.246,0
1594888586.975,-16.113,355.469,-174.805,-50.781,0
1594888586.979,-15.137,670.410,-124.512,-54.199,0
1594888586.983,-20.508,352.539,-223.633,-56.641,0
1594888586.987,-23.926,-105.957,-366.699,-59.570,0
1594888586.981,-12.695,-66.895,-343.750,-56.152,0
1594888586.985,-5.371,342.285,-203.613,-62.500,0
1594888586.989,-11.230,-20.996,-351.074,-71.289,0
1594888586.993,-17.578,-114.746,-407.227,-69.336,0
1594888586.997,-25.391,-164.551,-451.172,-59.082,0
1594888587.001,-32.715,-117.676,-444.336,-57.617,0
1594888587.005,-29.297,243.164,-333.496,-62.988,0
1594888587.008,-27.832,302.246,-283.691,-60.059,0
1594888587.012,-27.344,325.684,-249.512,-57.129,0
1594888587.016,-18.555,-296.875,-479.004,-54.688,0
1594888587.020,-18.066,-231.934,-423.828,-56.641,0
1594888587.024,-27.344,382.812,-253.906,-60.547,0
1594888587.022,-23.926,265.625,-303.711,-61.523,0
1594888587.026,-13.184,80.078,-331.055,-66.895,0
1594888587.030,-13.672,-116.211,-361.328,-68.359,0
1594888587.034,-21.973,210.449,-271.484,-64.941,0
1594888587.038,-35.645,165.039,-355.957,-66.895,0
1594888587.042,-28.809,-63.965,-384.766,-62.012,0
1594888587.046,-26.367,-132.812,-414.551,-61.523,0
1594888587.049,-40.039,-272.949,-494.629,-69.824,0
1594888587.053,-36.133,220.215,-326.660,-70.312,0
1594888587.057,-24.414,433.594,-258.789,-59.570,0
1594888587.061,-23.926,263.672,-248.047,-60.059,0
1594888587.065,-26.367,8.789,-310.547,-62.500,0
1594888587.076,-35.156,-99.609,-400.879,-60.547,0
1594888587.080,-32.227,-15.625,-402.344,-63.477,0
1594888587.084,-22.461,-21.484,-351.074,-57.617,0
1594888587.088,-26.367,117.188,-307.129,-53.711,0
1594888587.092,-20.508,-224.121,-539.551,-46.875,0
1594888587.096,-16.602,-481.445,-606.934,-41.504,0
1594888587.100,-11.230,375.000,-227.051,-56.641,0
1594888587.103,-12.695,746.094,-122.559,-61.035,0
1594888587.107,-22.461,215.332,-341.797,-54.688,0
1594888587.111,-23.926,-114.258,-395.020,-50.781,0
1594888587.115,-20.996,304.199,-169.434,-49.805,0
1594888587.119,-21.484,445.801,-176.758,-59.082,0
1594888587.131,-26.367,281.738,-183.594,-61.035,0
1594888587.135,-25.391,-50.293,-310.059,-53.711,0
1594888587.139,-22.461,-239.258,-372.070,-54.688,0
1594888587.143,-21.484,43.457,-278.809,-59.570,0
1594888587.147,-26.367,24.414,-339.844,-63.477,0
1594888587.151,-34.668,-50.781,-394.043,-62.500,0
1594888587.155,-35.156,-84.961,-424.805,-53.223,0
1594888587.158,-28.809,-444.336,-520.508,-49.316,0
1594888587.162,-20.020,-59.082,-430.176,-50.293,0
1594888587.166,-20.508,474.609,-316.406,-57.617,0
1594888587.170,-23.926,313.477,-292.480,-66.895,0
1594888587.174,-16.602,65.918,-296.387,-61.035,0
1594888587.169,-15.137,66.895,-279.297,-57.617,0
1594888587.173,-18.555,147.949,-304.199,-60.059,0
1594888587.177,-12.207,-139.160,-383.789,-59.570,0
1594888587.181,2.930,126.465,-235.840,-48.340,0
1594888587.185,0.000,-60.059,-370.605,-45.410,0
1594888587.189,-15.625,-402.344,-542.480,-49.316,0
1594888587.193,-24.902,-52.246,-422.852,-47.363,0
1594888587.196,-30.273,125.488,-384.277,-50.781,0
1594888587.200,-24.414,435.547,-221.191,-53.223,0
1594888587.204,-21.973,-143.066,-424.316,-47.363,0
1594888587.208,-33.203,-423.340,-554.688,-47.852,0
1594888587.212,-22.461,324.707,-299.805,-50.293,0
1594888587.225,-7.324,493.164,-197.266,-42.480,0
1594888587.229,-13.672,166.016,-273.438,-51.758,0
1594888587.233,-25.391,-139.160,-386.230,-61.035,0
1594888587.237,-23.438,27.344,-323.730,-52.734,0
1594888587.241,-23.438,48.340,-337.402,-53.223,0
1594888587.245,-24.414,-12.695,-357.910,-57.617,0
1594888587.249,-23.926,-144.043,-394.531,-56.641,0
1594888587.252,-26.855,-373.535,-502.441,-48.828,0
1594888587.256,-29.297,124.512,-354.004,-51.758,0
1594888587.260,-29.785,309.570,-311.035,-55.176,0
1594888587.264,-28.809,280.273,-258.789,-55.176,0
1594888587.268,-30.273,-2.441,-395.508,-49.805,0
1594888587.263,-35.645,-160.645,-449.219,-53.711,0
1594888587.267,-30.762,351.074,-167.480,-63.477,0
1594888587.271,-23.438,50.293,-295.410,-63.477,0
1594888587.275,-29.297,-163.574,-406.250,-63.965,0
1594888587.279,-35.156,-414.062,-540.527,-56.641,0
1594888587.283,-21.484,-248.535,-491.699,-54.199,0
1594888587.287,-21.484,364.258,-274.414,-60.547,0
1594888587.290,-36.133,389.160,-253.906,-63.477,0
1594888587.294,-34.668,199.219,-272.949,-67.871,0
1594888587.298,-27.344,-326.660,-441.406,-55.176,0
1594888587.302,-24.414,-100.586,-316.895,-49.316,0
1594888587.306,-30.273,366.211,-166.504,-58.594,0
1594888587.303,-29.297,20.508,-309.570,-60.059,0
1594888587.307,-22.949,-127.441,-357.910,-63.477,0
1594888587.311,-20.996,14.648,-285.645,-62.988,0
1594888587.315,-23.438,253.418,-226.562,-62.012,0
1594888587.319,-30.762,70.801,-363.281,-58.105,0
1594888587.323,-44.434,-110.840,-379.395,-56.641,0
1594888587.327,-48.828,12.695,-311.523,-59.570,0
1594888587.330,-52.734,14.648,-294.434,-53.711,0
1594888587.334,-60.547,331.543,-94.727,-47.852,0
1594888587.338,-58.594,369.629,-77.148,-51.270,0
1594888587.342,-55.664,187.988,-172.852,-52.246,0
1594888587.346,-51.270,-180.664,-336.914,-47.363,0
1594888587.356,-56.152,-156.738,-336.426,-56.641,0
1594888587.360,-55.176,164.551,-203.125,-67.383,0
1594888587.364,-38.574,-110.840,-299.805,-62.012,0
1594888587.368,-33.691,-51.758,-249.023,-60.547,0
1594888587.372,-37.109,-315.918,-411.621,-61.523,0
1594888587.376,-38.574,-588.379,-555.664,-51.758,0
1594888587.380,-33.691,199.219,-277.832,-52.734,0
1594888587.383,-23.438,615.234,-85.449,-53.223,0
1594888587.387,-28.809,290.527,-212.891,-57.129,0
1594888587.391,-35.645,-339.355,-448.730,-61.035,0
1594888587.395,-36.133,-130.371,-347.168,-53.223,0
1594888587.399,-38.086,455.078,-69.336,-52.734,2
1594888587.413,-32.715,343.262,-35.645,-56.152,0
1594888587.417,-37.109,-75.684,-290.039,-60.547,0
1594888587.421,-32.227,-249.023,-346.680,-53.711,0
1594888587.425,-20.508,142.090,-195.312,-41.992,0
1594888587.429,-20.996,60.547,-294.922,-44.434,0
1594888587.433,-23.926,-172.852,-406.250,-49.805,0
1594888587.437,-26.367,-105.469,-390.137,-58.105,0
1594888587.440,-20.508,-341.309,-500.000,-50.293,0
1594888587.444,-21.484,213.379,-303.711,-48.828,0
1594888587.448,-25.879,583.984,-202.148,-63.477,0
1594888587.452,-27.832,162.598,-334.473,-66.406,0
1594888587.456,-35.156,-66.895,-376.465,-66.895,0
1594888587.450,-24.414,89.844,-288.086,-58.105,0
1594888587.454,-17.578,276.367,-251.953,-53.711,0
1594888587.458,-26.367,-234.863,-473.145,-53.711,0
1594888587.462,-21.973,-178.223,-440.918,-50.781,0
1594888587.466,-12.207,-290.039,-533.691,-43.457,0
1594888587.470,-10.254,-381.348,-621.094,-44.434,0
1594888587.474,-13.672,296.875,-396.973,-53.223,0
1594888587.477,-10.742,396.484,-351.562,-55.664,0
1594888587.481,0.000,232.910,-342.285,-61.523,0
1594888587.485,-1.465,-319.824,-554.199,-57.129,0
1594888587.489,-11.719,-238.281,-551.270,-49.805,0
1594888587.493,-17.090,524.414,-279.297,-50.293,0
1594888587.490,-12.207,438.477,-299.316,-47.852,0
1594888587.494,-5.371,185.059,-328.125,-54.199,0
1594888587.498,-6.348,41.504,-334.961,-62.500,0
1594888587.502,-10.254,125.000,-316.895,-63.965,0
1594888587.506,-3.906,131.348,-350.586,-62.988,0
1594888587.510,5.371,0.977,-341.309,-65.430,0
1594888587.514,-4.395,-160.156,-431.152,-76.172,0
1594888587.517,-19.043,-318.848,-568.359,-74.707,0
1594888587.521,-6.836,385.254,-250.488,-64.453,0
1594888587.525,7.812,782.715,32.715,-56.641,0
1594888587.529,0.977,416.016,-2.441,-56.152,0
1594888587.533,-6.348,-39.062,-279.785,-54.688,0
1594888587.545,-10.742,17.090,-269.043,-56.641,0
1594888587.549,-8.301,251.465,-142.578,-52.246,0
1594888587.553,-9.766,-54.199,-268.555,-47.852,0
1594888587.557,-21.484,-145.020,-322.266,-52.734,0
1594888587.561,-31.250,-383.301,-510.254,-46.875,0
1594888587.565,-31.250,-386.719,-533.203,-42.969,0
1594888587.569,-21.484,294.922,-267.090,-48.828,0
1594888587.572,-17.578,546.387,-199.219,-51.270,0
1594888587.576,-24.414,346.191,-283.691,-54.199,0
1594888587.580,-23.438,-215.820,-437.012,-54.688,0
1594888587.584,-12.695,126.953,-204.590,-44.434,0
1594888587.588,-17.578,449.219,-98.633,-39.062,0
1594888587.600,-24.414,250.488,-174.805,-36.133,0
1594888587.604,-21.973,55.664,-242.676,-37.109,0
1594888587.608,-15.625,-270.996,-359.375,-37.598,0
1594888587.612,-9.277,121.582,-241.699,-40.039,0
1594888587.616,-9.277,216.797,-277.832,-44.434,0
1594888587.620,-18.555,-2.930,-329.102,-54.199,0
1594888587.624,-22.461,-46.875,-358.398,-59.570,0
1594888587.627,-18.555,-409.180,-513.672,-58.594,0
1594888587.631,-23.926,35.156,-372.070,-58.594,0
1594888587.635,-33.203,486.328,-250.488,-58.594,0
1594888587.639,-20.020,322.754,-269.531,-55.664,0
1594888587.643,-12.207,155.273,-259.766,-58.594,0
1594888587.638,-21.973,-11.719,-301.758,-67.871,0
1594888587.642,-19.531,115.234,-306.152,-63.965,0
1594888587.646,-22.949,-57.129,-357.910,-58.594,0
1594888587.650,-16.113,75.195,-248.047,-53.223,0
1594888587.654,-6.348,-200.684,-416.016,-50.781,0
1594888587.658,-20.020,-421.875,-579.590,-54.199,0
1594888587.662,-21.484,64.941,-377.930,-52.734,0
1594888587.665,-17.578,221.191,-300.293,-59.082,0
1594888587.669,-17.578,460.938,-220.215,-64.453,0
1594888587.673,-18.555,-168.945,-457.031,-51.758,0
1594888587.677,-24.414,-376.953,-506.348,-50.781,0
1594888587.681,-21.973,483.398,-183.105,-46.875,0
1594888587.694,-13.184,479.980,-183.594,-34.668,0
1594888587.698,-14.160,129.883,-285.645,-38.086,0
1594888587.702,-18.066,-106.445,-368.164,-37.598,0
1594888587.706,-14.648,161.133,-248.047,-41.504,0
1594888587.710,-7.812,303.223,-182.617,-46.875,0
1594888587.714,-10.742,-20.508,-284.668,-43.945,0
1594888587.718,-22.461,-255.859,-443.848,-44.922,0
1594888587.721,-22.461,-436.523,-534.180,-53.711,0
1594888587.725,-17.090,207.031,-193.848,-58.594,0
1594888587.729,-8.301,545.410,-131.836,-56.641,0
1594888587.733,-9.277,182.617,-316.895,-59.082,0
1594888587.737,-7.812,-251.465,-513.184,-57.617,0
1594888587.731,-4.883,-167.969,-463.867,-52.246,0
1594888587.735,-13.672,437.988,-171.387,-63.477,0
1594888587.739,-20.020,99.121,-321.777,-67.871,0
1594888587.743,-23.926,-158.203,-421.387,-60.547,0
1594888587.747,-22.461,-327.148,-506.836,-58.594,0
1594888587.751,-15.137,-255.371,-483.398,-52.734,0
1594888587.755,-18.555,366.699,-231.934,-50.781,0
1594888587.758,-21.973,378.418,-263.184,-50.293,0
1594888587.762,-21.973,316.895,-265.625,-56.152,0
1594888587.766,-17.090,-138.672,-359.375,-53.223,0
1594888587.770,-6.836,-322.266,-477.539,-44.434,0
1594888587.774,-5.859,46.875,-390.137,-54.199,0
1594888587.772,-9.277,211.426,-286.133,-50.781,0
1594888587.776,-4.395,270.508,-232.910,-49.316,0
1594888587.780,-12.695,-71.777,-336.426,-57.129,0
1594888587.784,-25.879,78.613,-275.879,-56.641,0
1594888587.788,-24.902,223.633,-273.926,-56.152,0
1594888587.792,-23.926,-58.105,-365.234,-50.293,0
1594888587.796,-23.926,-127.441,-372.559,-50.781,0
1594888587.799,-24.414,0.000,-386.719,-67.383,0
1594888587.803,-17.578,153.809,-312.988,-68.848,0
1594888587.807,-12.695,169.922,-300.781,-57.617,0
1594888587.811,-24.414,406.738,-104.492,-59.570,0
1594888587.815,-31.738,96.191,-230.469,-59.570,0
1594888587.827,-31.250,-379.883,-525.879,-54.199,0
1594888587.831,-27.344,-95.215,-375.488,-55.664,0
1594888587.835,-29.297,5.371,-312.500,-62.500,0
1594888587.839,-35.156,103.027,-258.789,-66.895,0
1594888587.843,-48.340,-272.949,-502.930,-62.988,0
1594888587.847,-53.223,-558.594,-617.676,-62.500,0
1594888587.851,-37.109,128.418,-358.887,-60.547,0
1594888587.854,-22.461,585.938,-255.371,-49.805,0
1594888587.858,-21.973,412.598,-320.801,-57.129,0
1594888587.862,-26.367,-193.359,-447.266,-62.012,0
1594888587.866,-20.996,-51.758,-348.633,-62.500,0
1594888587.870,-16.113,332.520,-275.879,-63.965,0
1594888587.881,-19.531,181.152,-301.270,-61.035,0
1594888587.885,-16.113,-19.043,-355.957,-60.547,0
1594888587.889,-9.766,-135.254,-339.844,-62.500,0
1594888587.893,-8.789,119.629,-257.324,-59.570,0
1594888587.897,-16.113,63.965,-293.457,-58.105,0
1594888587.901,-25.879,-202.637,-420.898,-57.129,0
1594888587.905,-18.555,-234.863,-476.074,-51.270,0
1594888587.908,-10.254,-476.074,-527.832,-52.246,0
1594888587.912,-12.207,-40.527,-430.664,-58.105,0
1594888587.916,-16.602,587.402,-237.793,-62.500,0
1594888587.920,-14.160,456.055,-187.500,-55.664,0
1594888587.924,-8.301,145.020,-240.234,-51.758,0
1594888587.919,-9.766,102.539,-190.430,-50.781,0
1594888587.923,-17.090,82.031,-220.215,-51.270,0
1594888587.927,-18.066,-272.949,-393.066,-53.711,0
1594888587.931,-11.719,-159.668,-309.082,-53.223,0
1594888587.935,-11.230,-249.023,-429.199,-47.363,0
1594888587.939,-26.855,-333.008,-502.441,-51.758,0
1594888587.943,-47.852,138.672,-341.309,-58.594,0
1594888587.946,-43.945,-1.953,-449.707,-55.176,0
1594888587.950,-30.273,8.301,-443.359,-54.199,0
1594888587.954,-27.344,-319.336,-570.312,-50.781,0
1594888587.958,-36.133,-390.625,-582.520,-59.570,0
1594888587.962,-32.715,457.031,-282.227,-62.500,0
1594888587.975,-12.207,584.473,-223.633,-58.594,0
1594888587.979,-12.207,246.094,-315.430,-73.730,0
1594888587.983,-13.184,-106.934,-409.668,-81.543,0
1594888587.987,-4.395,148.926,-285.156,-73.242,0
1594888587.991,-3.418,93.750,-326.172,-82.031,0
1594888587.995,-4.883,18.555,-334.961,-84.961,0
1594888587.999,1.465,-107.422,-413.574,-75.195,0
1594888588.002,0.000,-448.242,-512.695,-73.242,0
1594888588.006,-10.742,169.922,-250.000,-65.430,0
1594888588.010,-13.672,520.020,-194.336,-59.082,0
1594888588.014,-27.832,86.426,-293.457,-61.523,0
1594888588.018,-38.574,-474.121,-554.688,-56.641,0
1594888588.013,-31.738,-254.883,-511.719,-47.852,0
1594888588.017,-25.391,410.156,-210.938,-51.758,0
1594888588.021,-25.879,83.496,-346.191,-58.594,0
1594888588.025,-23.438,-112.305,-415.527,-60.059,0
1594888588.029,-19.043,-255.371,-527.344,-60.547,0
1594888588.033,-15.625,-228.027,-507.324,-62.500,0
1594888588.037,-21.484,352.539,-246.582,-73.730,0
1594888588.040,-28.320,399.414,-227.051,-76.172,0
1594888588.044,-29.297,125.488,-352.539,-76.172,0
1594888588.048,-23.438,-145.020,-397.461,-77.148,0
1594888588.052,-15.137,150.879,-231.445,-74.707,0
1594888588.056,-15.137,209.961,-295.410,-77.148,0
1594888588.053,-17.578,-138.672,-432.617,-77.148,0
1594888588.057,-12.695,-76.172,-384.277,-75.195,0
1594888588.061,-5.859,-372.070,-500.977,-65.918,0
1594888588.065,-7.812,-89.844,-439.941,-61.035,0
1594888588.069,-15.625,399.414,-329.590,-68.359,0
1594888588.073,-22.461,58.594,-410.645,-67.383,0
1594888588.077,-21.484,35.645,-354.980,-56.641,0
1594888588.080,-24.414,-202.637,-448.242,-55.176,0
1594888588.084,-28.809,100.098,-336.914,-62.500,0
1594888588.088,-25.879,264.648,-275.879,-67.871,0
1594888588.092,-14.648,93.262,-264.648,-69.336,0
1594888588.096,-17.578,16.113,-277.832,-72.266,0
1594888588.106,-35.156,-87.891,-333.984,-79.590,0
1594888588.110,-33.203,-51.758,-334.473,-76.172,0
1594888588.114,-20.020,-175.781,-339.844,-62.988,0
1594888588.118,-12.207,-70.801,-301.270,-61.523,0
1594888588.122,-20.508,-408.691,-480.957,-60.059,0
1594888588.126,-31.250,-651.855,-576.660,-59.082,0
1594888588.130,-22.461,182.617,-242.676,-60.059,0
1594888588.133,-14.160,423.828,-193.848,-57.617,0
1594888588.137,-13.672,139.160,-307.617,-59.570,0
1594888588.141,-9.277,-437.988,-483.398,-58.105,0
1594888588.145,-13.184,-235.840,-389.160,-67.871,0
1594888588.149,-13.672,336.426,-197.266,-65.430,1
1594888588.163,-14.648,104.004,-282.227,-62.988,0
1594888588.167,-25.391,-197.754,-400.879,-65.918,0
1594888588.171,-34.180,-271.973,-404.785,-67.871,0
1594888588.175,-30.273,136.719,-239.258,-74.707,0
1594888588.179,-18.555,179.688,-240.723,-74.707,0
1594888588.183,-20.020,-197.266,-419.434,-71.289,0
1594888588.187,-19.531,-305.176,-476.074,-70.801,0
1594888588.190,-4.883,-505.859,-557.129,-62.988,0
1594888588.194,4.883,135.254,-343.262,-63.965,0
1594888588.198,5.371,637.207,-186.523,-65.918,0
1594888588.202,-0.488,74.707,-388.184,-58.105,0
1594888588.206,-0.488,-225.098,-479.492,-62.988,0
1594888588.200,6.348,94.238,-287.598,-65.430,0
1594888588.204,7.812,253.906,-250.977,-63.477,0
1594888588.208,-13.184,-91.797,-407.227,-59.570,0
1594888588.212,-28.809,47.852,-322.266,-57.617,0
1594888588.216,-21.973,-177.246,-442.383,-56.152,0
1594888588.220,-18.555,-338.867,-539.551,-49.805,0
1594888588.224,-18.555,170.410,-342.285,-50.293,0
1594888588.227,-14.160,314.941,-250.488,-45.410,0
1594888588.231,-4.395,212.402,-270.996,-44.434,0
1594888588.235,-10.742,-475.098,-554.688,-49.316,0
1594888588.239,-17.578,-461.914,-578.125,-48.340,0
1594888588.243,-12.695,414.062,-278.809,-52.246,0
1594888588.241,-14.160,452.148,-233.398,-52.246,0
1594888588.245,-7.324,128.906,-298.340,-47.363,0
1594888588.249,-4.883,-40.527,-335.449,-48.340,0
1594888588.253,-17.090,-19.531,-387.207,-54.688,0
1594888588.257,-18.555,53.223,-378.906,-53.223,0
1594888588.261,-15.625,90.332,-317.871,-65.918,0
1594888588.265,-21.973,-124.512,-416.504,-74.219,0
1594888588.268,-20.996,-350.098,-502.930,-53.711,0
1594888588.272,-17.578,126.465,-338.867,-50.293,0
1594888588.276,-19.531,378.906,-294.922,-66.406,0
1594888588.280,-21.484,256.348,-261.230,-67.871,0
1594888588.284,-15.137,-8.789,-341.309,-63.965,0
1594888588.295,-14.648,-236.816,-445.312,-61.035,0
1594888588.299,-9.766,86.426,-313.477,-56.152,0
1594888588.303,-5.371,69.336,-329.102,-56.641,0
1594888588.307,-13.184,2.441,-350.586,-62.500,0
1594888588.311,-24.902,-278.320,-512.207,-56.152,0
1594888588.315,-26.367,-604.004,-621.094,-51.758,0
1594888588.319,-13.672,259.277,-300.781,-50.293,0
1594888588.322,-8.301,671.875,-186.523,-55.664,0
1594888588.326,-11.230,173.828,-353.516,-57.617,0
1594888588.330,-9.277,-171.387,-375.977,-52.246,0
1594888588.334,-1.465,178.223,-174.805,-56.152,0
1594888588.338,-6.836,353.516,-173.340,-56.641,0
1594888588.350,-26.855,75.684,-287.109,-61.035,0
1594888588.354,-31.250,-38.574,-330.078,-64.453,0
1594888588.358,-25.391,-97.168,-306.152,-56.152,0
1594888588.362,-24.902,-31.250,-281.250,-50.293,0
1594888588.366,-28.809,23.926,-340.332,-55.176,0
1594888588.370,-28.320,-113.770,-400.879,-57.617,0
1594888588.374,-18.066,-55.176,-364.258,-49.805,0
1594888588.377,-10.742,-240.234,-436.035,-40.039,0
1594888588.381,-27.344,0.977,-383.301,-46.387,0
1594888588.385,-38.574,454.590,-232.910,-58.594,0
1594888588.389,-35.645,274.414,-235.840,-55.664,0
1594888588.393,-28.320,-37.109,-333.984,-58.105,0
1594888588.388,-22.461,-70.312,-338.379,-60.059,0
1594888588.392,-23.438,99.609,-300.781,-62.500,0
1594888588.396,-19.043,-144.531,-406.250,-57.617,0
1594888588.400,-25.391,99.121,-270.996,-63.965,0
1594888588.404,-30.762,-127.441,-415.039,-71.289,0
1594888588.408,-30.273,-334.961,-527.832,-68.359,0
1594888588.412,-31.738,145.996,-343.750,-75.684,0
1594888588.415,-25.879,134.277,-327.637,-79.102,0
1594888588.419,-21.484,344.727,-212.891,-79.102,0
1594888588.423,-25.879,-230.469,-503.418,-78.613,0
1594888588.427,-24.902,-396.973,-562.012,-73.730,0
1594888588.431,-21.484,473.633,-218.262,-70.312,0
1594888588.444,-15.137,548.828,-166.504,-62.988,0
1594888588.448,-13.184,192.871,-245.605,-63.965,0
1594888588.452,-17.578,-132.812,-377.930,-60.059,0
1594888588.456,-12.207,23.926,-296.875,-56.641,0
1594888588.460,-11.230,200.684,-217.773,-60.059,0
1594888588.464,-15.137,33.691,-279.785,-62.012,0
1594888588.468,-20.996,-237.305,-418.945,-56.152,0
1594888588.471,-28.320,-315.430,-478.027,-54.199,0
1594888588.475,-11.230,176.270,-279.785,-53.711,0
1594888588.479,-4.395,351.562,-248.047,-60.059,0
1594888588.483,-20.508,229.004,-256.836,-68.359,0
1594888588.487,-22.461,-170.898,-432.129,-57.617,0
1594888588.481,-15.625,-195.801,-469.238,-52.246,0
1594888588.485,-21.484,228.027,-263.672,-57.617,0
1594888588.489,-38.574,-33.691,-369.629,-62.500,0
1594888588.493,-39.062,-97.656,-393.555,-53.223,0
1594888588.497,-31.250,-132.812,-404.785,-59.570,0
1594888588.501,-23.926,-157.715,-444.336,-68.359,0
1594888588.505,-21.484,231.445,-297.363,-62.988,0
1594888588.508,-28.320,292.969,-249.512,-62.012,0
1594888588.512,-20.508,165.527,-297.363,-61.035,0
1594888588.516,-12.695,-389.648,-493.164,-54.688,0
1594888588.520,-16.602,-306.641,-490.234,-52.734,0
1594888588.524,-19.043,187.012,-347.656,-54.199,0
1594888588.522,-15.137,233.398,-275.879,-53.711,0
1594888588.526,-13.184,253.418,-213.379,-61.523,0
1594888588.530,-16.602,-54.688,-284.180,-67.383,0
1594888588.534,-18.555,96.680,-256.836,-67.871,0
1594888588.538,-12.207,142.090,-279.297,-66.895,0
1594888588.542,-9.766,-4.395,-285.645,-74.707,0
1594888588.546,-15.625,-82.031,-343.262,-79.590,0
1594888588.549,-24.902,-373.535,-485.352,-80.566,0
1594888588.553,-31.738,-93.750,-447.266,-80.566,0
1594888588.557,-32.715,301.758,-345.703,-75.195,0
1594888588.561,-26.367,339.844,-253.906,-71.289,0
1594888588.565,-26.367,29.785,-347.656,-67.383,0
1594888588.575,-36.621,-86.914,-382.812,-71.289,0
1594888588.579,-29.297,206.055,-256.348,-66.406,0
1594888588.583,-13.184,-4.883,-333.984,-54.199,0
1594888588.587,-22.949,7.324,-310.059,-56.641,0
1594888588.591,-47.363,-205.078,-474.121,-65.918,0
1594888588.595,-48.828,-627.930,-615.234,-66.895,0
1594888588.599,-34.180,134.277,-319.336,-68.848,0
1594888588.602,-29.297,647.949,-197.754,-63.477,0
1594888588.606,-37.598,267.090,-305.176,-63.477,0
1594888588.610,-35.645,-225.586,-410.645,-56.152,0
1594888588.614,-20.020,-27.832,-291.016,-53.711,0
1594888588.618,-10.254,181.641,-304.199,-59.082,0
1594888588.631,-12.695,176.758,-262.207,-56.641,0
1594888588.635,-15.137,8.301,-305.176,-58.105,0
1594888588.639,-8.789,-259.277,-387.695,-51.270,0
1594888588.643,-7.324,104.004,-229.004,-49.805,0
1594888588.647,-14.648,83.496,-284.180,-61.035,0
1594888588.651,-17.578,-242.676,-419.434,-67.383,0
1594888588.655,-17.578,-147.949,-373.047,-60.547,0
1594888588.658,-15.625,-422.852,-494.629,-54.688,0
1594888588.662,-18.066,-134.766,-438.477,-51.270,0
1594888588.666,-13.184,327.637,-291.992,-43.945,0
1594888588.670,-4.395,177.246,-303.223,-44.434,0
1594888588.674,-4.395,-21.484,-352.539,-53.711,0
1594888588.669,-1.465,-27.344,-345.215,-61.523,0
1594888588.673,4.883,161.621,-287.598,-68.848,0
1594888588.677,0.488,-215.820,-412.598,-72.754,0
1594888588.681,-2.441,-60.059,-298.340,-69.336,0
1594888588.685,1.465,-80.078,-365.234,-65.918,0
1594888588.689,-15.137,-420.410,-548.340,-60.547,0
1594888588.693,-38.086,96.680,-322.754,-55.176,0
1594888588.696,-41.016,215.820,-317.871,-50.293,0
1594888588.700,-33.691,25.391,-340.820,-55.176,0
1594888588.704,-34.668,-330.566,-449.219,-61.035,0
1594888588.708,-36.621,-341.797,-520.996,-66.895,0
1594888588.712,-32.227,353.516,-292.480,-70.801,0
1594888588.725,-21.484,404.297,-258.789,-74.707,0
1594888588.729,-20.020,205.078,-270.996,-80.078,0
1594888588.733,-24.902,37.109,-318.359,-77.148,0
1594888588.737,-23.926,141.602,-255.371,-76.172,0
1594888588.741,-26.855,214.355,-262.695,-77.148,0
1594888588.745,-20.508,-15.137,-312.012,-74.707,0
1594888588.749,-8.301,-141.602,-360.840,-64.453,0
1594888588.752,-20.508,-331.543,-470.215,-64.941,0
1594888588.756,-18.066,145.508,-282.715,-62.988,0
1594888588.760,-6.348,544.434,-193.359,-60.059,0
1594888588.764,-13.184,183.594,-247.070,-69.336,0
1594888588.768,-20.508,-232.910,-438.965,-71.777,0
1594888588.763,-16.602,-115.234,-429.199,-74.707,0
1594888588.767,-3.418,375.000,-161.621,-69.824,0
1594888588.771,-4.883,136.719,-259.277,-67.871,0
1594888588.775,-13.672,-119.141,-362.793,-77.148,0
1594888588.779,-12.207,-295.898,-445.312,-68.359,0
1594888588.783,-8.789,-146.973,-395.020,-58.594,0
1594888588.787,-9.277,357.422,-229.004,-57.617,0
1594888588.790,-21.484,342.285,-228.027,-56.641,0
1594888588.794,-39.062,240.234,-242.188,-65.918,0
1594888588.798,-38.086,-308.105,-456.055,-62.500,0
1594888588.802,-27.344,-182.129,-416.504,-55.176,0
1594888588.806,-25.391,486.328,-190.918,-62.500,0
1594888588.819,-23.438,207.520,-290.039,-62.500,0
1594888588.823,-23.926,-42.969,-343.262,-58.105,0
1594888588.827,-18.066,-47.363,-311.035,-61.035,0
1594888588.831,-9.277,81.543,-290.039,-62.012,0
1594888588.835,-18.555,12.207,-360.352,-62.012,0
1594888588.839,-25.391,-169.922,-401.367,-68.848,0
1594888588.843,-17.578,-116.211,-382.324,-72.754,0
1594888588.846,-24.902,-258.301,-430.176,-72.754,0
1594888588.850,-23.926,66.895,-338.867,-62.012,0
1594888588.854,-19.531,411.133,-270.020,-58.594,0
1594888588.858,-20.996,352.051,-213.867,-62.988,0
1594888588.862,-18.555,25.391,-325.195,-62.500,0
1594888588.856,-22.461,-129.883,-404.785,-64.453,0
1594888588.860,-37.109,138.184,-327.148,-64.941,0
1594888588.864,-38.574,-52.734,-348.145,-63.965,0
1594888588.868,-23.438,148.438,-233.398,-68.848,2
1594888588.872,-28.809,-113.770,-427.734,-78.613,0
1594888588.876,-41.504,-460.449,-582.520,-79.102,0
1594888588.880,-41.992,247.559,-330.078,-85.449,0
1594888588.883,-26.367,548.340,-209.473,-87.891,0
1594888588.887,-32.227,398.438,-253.906,-83.984,0
1594888588.891,-49.316,-377.441,-574.219,-91.797,0
1594888588.895,-39.551,-267.090,-519.043,-95.703,0
1594888588.899,-33.203,593.262,-164.551,-94.238,0
1594888588.913,-37.598,443.359,-215.332,-102.539,0
1594888588.917,-41.992,-2.930,-363.281,-106.934,0
1594888588.921,-41.504,-147.461,-383.789,-94.727,0
1594888588.925,-34.180,317.871,-187.500,-97.168,0
1594888588.929,-27.832,367.676,-206.543,-107.910,0
1594888588.933,-34.668,9.277,-336.914,-106.934,0
1594888588.937,-33.203,-133.301,-403.320,-103.027,0
1594888588.940,-22.461,-295.898,-482.422,-101.562,0
1594888588.944,-18.066,216.309,-281.250,-103.516,0
1594888588.948,-17.578,434.082,-264.160,-107.422,0
1594888588.952,-20.020,214.355,-306.641,-105.957,0
1594888588.956,-18.555,-89.844,-422.363,-106.934,0
1594888588.950,-15.137,-66.406,-409.180,-104.004,0
1594888588.954,-16.113,380.859,-219.238,-103.027,0
1594888588.958,-25.879,-8.789,-377.930,-111.328,0
1594888588.962,-26.855,29.785,-317.871,-118.164,0
1594888588.966,-21.973,-89.355,-390.137,-119.629,0
1594888588.970,-17.090,-293.457,-512.695,-120.605,0
1594888588.974,-22.461,167.480,-374.512,-128.418,0
1594888588.977,-31.738,317.383,-316.895,-126.953,0
1594888588.981,-21.973,355.957,-260.742,-114.258,0
1594888588.985,-21.484,-207.031,-453.125,-107.910,0
1594888588.989,-32.715,-307.617,-467.773,-108.887,0
1594888588.993,-33.691,375.000,-282.715,-110.840,0
1594888588.991,-27.832,426.270,-276.855,-105.957,0
1594888588.995,-22.949,213.379,-268.066,-100.586,0
1594888588.999,-18.555,-104.004,-354.492,-97.656,0
1594888589.003,-19.531,149.902,-281.738,-99.121,0
1594888589.007,-19.043,303.711,-270.996,-95.215,0
1594888589.011,-14.160,-21.484,-356.934,-94.238,0
1594888589.015,-4.395,-61.523,-376.953,-92.773,0
1594888589.018,-9.277,-255.371,-464.355,-84.473,0
1594888589.022,-22.949,43.457,-321.777,-83.496,0
1594888589.026,-18.555,491.211,-156.250,-83.496,0
1594888589.030,-11.719,291.504,-217.773,-80.566,0
1594888589.034,-14.160,-192.871,-443.848,-81.055,0
1594888589.045,-12.207,-186.035,-408.203,-80.078,0
1594888589.049,-9.766,21.484,-289.062,-81.055,0
1594888589.053,-13.672,-20.020,-330.566,-91.797,0
1594888589.057,-12.695,126.465,-300.293,-92.285,0
1594888589.061,-17.578,-219.727,-478.027,-83.496,0
1594888589.065,-27.344,-602.051,-567.871,-69.824,0
1594888589.069,-24.902,207.520,-237.793,-69.336,0
1594888589.072,-29.785,587.891,-208.008,-76.172,0
1594888589.076,-37.109,154.297,-384.766,-82.031,0
1594888589.080,-35.156,-231.445,-450.684,-85.449,0
1594888589.084,-28.809,189.453,-234.375,-83.496,0
1594888589.088,-28.809,548.828,-76.172,-78.125,0
1594888589.100,-32.227,170.410,-246.094,-77.637,0
1594888589.104,-27.344,-73.242,-340.332,-78.125,0
1594888589.108,-13.184,-28.320,-262.207,-76.660,0
1594888589.112,-9.766,171.875,-274.414,-81.543,0
1594888589.116,-16.113,-73.242,-403.809,-82.520,0
1594888589.120,-20.020,-305.176,-464.844,-87.402,0
1594888589.124,-19.531,-15.625,-358.398,-88.867,0
1594888589.127,-13.184,-216.797,-455.566,-66.895,0
1594888589.131,-15.137,-66.406,-446.777,-65.430,0
1594888589.135,-20.996,538.574,-257.812,-74.707,0
1594888589.139,-20.020,312.988,-291.016,-66.895,0
1594888589.143,-18.066,67.383,-312.988,-70.801,0
1594888589.138,-17.578,52.734,-343.750,-72.754,0
1594888589.142,-16.602,39.062,-359.375,-79.102,0
1594888589.146,-21.973,-122.559,-405.762,-83.008,0
1594888589.150,-18.555,150.879,-258.301,-78.613,0
1594888589.154,-12.207,-90.820,-396.484,-77.637,0
1594888589.158,-17.090,-340.820,-502.930,-77.637,0
1594888589.162,-17.578,218.262,-295.410,-75.195,0
1594888589.165,-19.531,317.383,-288.574,-70.801,0
1594888589.169,-24.902,420.898,-182.617,-74.707,0
1594888589.173,-25.391,-202.637,-430.664,-77.637,0
1594888589.177,-37.598,-458.984,-523.926,-72.754,0
1594888589.181,-33.691,413.574,-238.281,-77.637,0
1594888589.194,-22.461,570.801,-194.336,-80.078,0
1594888589.198,-23.438,164.551,-312.012,-74.219,0
1594888589.202,-23.438,-108.887,-388.184,-79.102,0
1594888589.206,-19.043,98.633,-295.410,-74.707,0
1594888589.210,-14.648,201.172,-293.945,-74.707,0
1594888589.214,-20.020,11.719,-331.055,-80.078,0
1594888589.218,-21.973,-198.242,-464.844,-76.172,0
1594888589.221,-16.602,-272.949,-501.465,-79.102,0
1594888589.225,-19.531,344.727,-239.258,-83.984,0
1594888589.229,-19.531,503.906,-288.574,-79.590,0
1594888589.233,-18.555,296.387,-343.750,-77.637,0
1594888589.237,-28.809,47.852,-450.195,-84.473,0
1594888589.231,-28.320,6.836,-450.684,-85.938,0
1594888589.235,-30.273,481.445,-212.402,-84.473,0
1594888589.239,-37.598,131.348,-366.211,-87.402,0
1594888589.243,-35.645,61.523,-357.910,-85.449,0
1594888589.247,-31.738,-151.367,-475.098,-75.684,0
1594888589.251,-20.508,-213.379,-515.625,-71.289,0
1594888589.255,-14.160,308.594,-293.945,-80.078,0
1594888589.258,-16.113,352.539,-312.500,-86.426,0
1594888589.262,-18.555,410.645,-268.066,-88.867,0
1594888589.266,-20.508,-116.211,-436.035,-80.566,0
1594888589.270,-28.809,-149.902,-454.590,-70.312,0
1594888589.274,-30.273,335.938,-308.105,-73.730,0
1594888589.272,-24.414,216.797,-342.285,-75.195,0
1594888589.276,-20.996,102.051,-347.168,-67.871,0
1594888589.280,-19.531,-0.977,-329.590,-65.430,0
1594888589.284,-25.879,205.566,-292.969,-68.359,0
1594888589.288,-24.902,176.758,-377.930,-66.406,0
1594888589.292,-22.949,90.332,-344.727,-64.941,0
1594888589.296,-20.508,136.230,-333.008,-62.012,0
1594888589.299,-25.879,-76.660,-388.184,-51.758,0
1594888589.303,-32.715,249.023,-276.855,-43.457,0
1594888589.307,-31.250,429.688,-271.484,-36.133,0
1594888589.311,-26.855,369.629,-180.664,-36.133,0
1594888589.315,-27.344,47.852,-305.664,-37.109,0
1594888589.325,-29.297,-141.602,-414.062,-25.391,0
1594888589.329,-21.973,163.574,-270.996,-19.531,0
1594888589.333,-12.207,-11.230,-318.848,-16.602,0
1594888589.337,-19.043,13.672,-271.484,-18.066,0
1594888589.341,-32.227,-111.328,-404.785,-21.973,0
1594888589.345,-34.668,-756.348,-632.324,-7.324,0
1594888589.349,-26.855,-14.648,-328.125,-6.836,0
1594888589.352,-14.648,710.938,-183.594,-12.207,0
1594888589.356,-17.578,379.395,-314.941,-14.648,0
1594888589.360,-26.367,-92.285,-353.516,-12.695,0
1594888589.364,-26.855,-6.836,-279.297,-3.418,0
1594888589.368,-28.320,440.918,-113.281,-1.465,0
1594888589.381,-25.879,410.156,-24.414,0.977,0
1594888589.385,-38.086,111.328,-197.754,-3.906,0
1594888589.389,-45.898,-124.512,-296.387,-12.695,0
1594888589.393,-33.691,122.070,-170.898,-14.648,0
1594888589.397,-26.367,240.723,-66.895,-23.438,0
1594888589.401,-32.227,-94.727,-250.977,-31.738,0
1594888589.405,-28.320,-219.238,-352.051,-34.180,0
1594888589.408,-11.719,-730.469,-546.875,-32.227,0
1594888589.412,-15.625,-344.727,-502.441,-24.902,0
1594888589.416,-28.809,387.207,-326.172,-27.832,0
1594888589.420,-30.273,272.461,-305.176,-18.066,0
1594888589.424,-23.438,155.273,-318.848,-16.113,0
1594888589.419,-21.973,110.840,-349.609,-24.414,0
1594888589.423,-26.367,210.449,-264.648,-23.438,0
1594888589.427,-25.879,-74.219,-350.586,-30.273,0
1594888589.431,-21.973,-132.812,-381.836,-40.039,0
1594888589.435,-14.160,-242.188,-479.492,-34.180,0
1594888589.439,-14.648,-332.520,-539.551,-36.133,0
1594888589.443,-15.625,165.527,-335.449,-46.875,0
1594888589.446,-13.672,354.492,-290.039,-47.852,0
1594888589.450,-9.766,418.945,-184.570,-45.410,0
1594888589.454,-6.836,-245.605,-379.395,-40.039,0
1594888589.458,-18.066,-622.559,-550.781,-39.551,0
1594888589.462,-20.508,129.883,-325.195,-40.527,0
1594888589.459,-18.066,393.066,-244.141,-46.387,0
1594888589.463,-25.391,233.398,-240.723,-48.340,0
1594888589.467,-36.133,42.969,-293.945,-52.246,0
1594888589.471,-46.387,11.719,-301.758,-65.918,0
1594888589.475,-40.039,0.977,-317.383,-63.965,0
1594888589.479,-26.855,-212.402,-407.715,-61.523,0
1594888589.483,-25.879,-392.090,-490.723,-67.871,0
1594888589.486,-29.297,-447.266,-473.145,-70.801,0
1594888589.490,-28.809,52.246,-330.566,-73.242,0
1594888589.494,-27.344,489.258,-253.418,-70.801,0
1594888589.498,-26.855,352.051,-239.746,-64.453,0
1594888589.502,-26.855,-199.707,-481.445,-66.895,0
1594888589.514,-16.113,-189.453,-449.219,-59.570,0
1594888589.518,-9.766,450.684,-145.020,-54.688,0
1594888589.522,-14.160,206.055,-251.953,-57.129,0
1594888589.526,-17.578,-13.672,-321.289,-59.570,0
1594888589.530,-19.043,-410.645,-501.465,-59.082,0
1594888589.534,-14.160,-516.602,-461.914,-53.711,0
1594888589.538,-1.953,415.527,9.277,-45.898,0
1594888589.541,-1.465,578.613,-55.664,-45.410,0
1594888589.545,-12.207,172.852,-333.008,-58.105,0
1594888589.549,-14.648,-310.059,-394.043,-62.988,0
1594888589.553,-13.184,-12.207,-222.168,-60.547,0
1594888589.557,-19.043,215.820,-261.230,-65.430,0
1594888589.569,-35.645,65.918,-305.176,-72.266,0
1594888589.573,-35.645,63.477,-295.898,-70.312,0
1594888589.577,-21.484,-235.352,-365.234,-69.336,0
1594888589.581,-18.555,-44.434,-273.926,-71.777,0
1594888589.585,-20.020,54.199,-360.352,-65.430,0
1594888589.589,-19.043,-197.266,-441.895,-60.059,0
1594888589.593,-26.855,-118.652,-368.652,-64.453,0
1594888589.596,-38.574,-467.773,-573.730,-67.383,0
1594888589.600,-40.527,-128.418,-505.859,-68.848,0
1594888589.604,-44.922,521.484,-313.477,-75.684,0
1594888589.608,-44.922,442.383,-291.504,-76.660,0
1594888589.612,-28.320,250.488,-345.215,-68.848,0
1594888589.606,-28.320,99.609,-402.344,-69.336,0
1594888589.610,-33.203,242.676,-306.152,-74.707,0
1594888589.614,-26.367,27.344,-332.520,-63.965,0
1594888589.618,-32.715,167.480,-249.512,-58.594,0
1594888589.622,-44.434,-92.285,-416.992,-68.359,0
1594888589.626,-50.293,-385.254,-563.965,-66.406,0
1594888589.630,-44.922,119.629,-405.762,-57.617,0
1594888589.633,-32.227,383.301,-284.180,-54.688,0
1594888589.637,-26.855,610.840,-198.242,-58.594,0
1594888589.641,-24.414,-110.840,-511.230,-51.758,0
1594888589.645,-20.508,-267.578,-495.117,-47.852,0
1594888589.649,-22.949,587.402,-183.594,-53.223,0
1594888589.663,-27.344,591.797,-204.102,-57.617,0
1594888589.667,-33.203,298.828,-234.375,-66.406,0
1594888589.671,-34.180,0.488,-319.336,-57.129,0
1594888589.675,-28.809,172.363,-251.465,-51.270,0
1594888589.679,-30.273,178.711,-296.875,-56.641,0
1594888589.683,-31.250,-202.148,-453.613,-53.223,0
1594888589.687,-29.297,-268.066,-472.656,-56.152,0
1594888589.690,-26.367,-350.586,-498.535,-54.688,0
1594888589.694,-20.020,98.145,-323.730,-56.152,0
1594888589.698,-16.113,508.789,-268.066,-58.105,0
1594888589.702,-19.043,464.844,-249.023,-50.293,0
1594888589.706,-30.762,125.000,-376.953,-59.082,0
1594888589.700,-28.809,-49.805,-395.996,-67.871,0
1594888589.704,-17.090,352.051,-197.754,-62.012,0
1594888589.708,-19.531,24.414,-378.906,-58.105,0
1594888589.712,-17.090,-95.215,-402.832,-62.012,0
1594888589.716,-15.137,-168.457,-446.289,-62.988,0
1594888589.720,-22.949,-168.945,-440.918,-64.941,0
1594888589.724,-29.785,371.094,-290.527,-68.359,0
1594888589.727,-33.203,394.531,-268.066,-74.707,0
1594888589.731,-31.738,375.000,-207.031,-78.613,0
1594888589.735,-23.926,-215.820,-432.617,-62.988,0
1594888589.739,-22.949,-340.332,-477.539,-60.059,0
1594888589.743,-25.879,149.902,-312.988,-67.383,0
1594888589.741,-19.531,227.539,-273.926,-68.848,0
1594888589.745,-7.324,322.754,-217.285,-62.500,0
1594888589.749,-5.371,46.875,-296.387,-57.617,1
1594888589.753,-13.184,60.059,-324.707,-58.105,0
1594888589.757,-12.695,140.625,-340.820,-61.523,0
1594888589.761,-5.371,35.645,-334.961,-66.406,0
1594888589.765,-7.324,-36.621,-380.371,-68.359,0
1594888589.768,-19.043,-441.895,-514.160,-68.848,0
1594888589.772,-20.020,-31.250,-327.637,-62.988,0
1594888589.776,-10.254,500.000,-211.914,-52.246,0
1594888589.780,-7.812,348.633,-257.812,-46.875,0
1594888589.784,-14.648,-96.191,-451.172,-52.246,0
1594888589.795,-17.090,-186.035,-477.051,-57.129,0
1594888589.799,-15.625,121.094,-320.801,-57.617,0
1594888589.803,-14.648,148.438,-304.688,-48.828,0
1594888589.807,-20.508,209.473,-251.465,-43.457,0
1594888589.811,-22.949,-128.418,-430.664,-47.852,0
1594888589.815,-26.367,-616.211,-555.176,-51.270,0
1594888589.819,-30.273,126.953,-218.750,-55.664,0
1594888589.822,-37.598,737.793,-93.262,-65.430,0
1594888589.826,-46.875,397.461,-260.254,-71.289,0
1594888589.830,-35.156,-170.898,-354.492,-54.199,0
1594888589.834,-24.414,-47.852,-263.184,-46.387,0
1594888589.838,-30.273,217.285,-275.879,-52.734,0
1594888589.833,-36.621,178.223,-248.535,-68.359,0
1594888589.837,-34.180,51.758,-302.734,-62.500,0
1594888589.841,-26.367,-229.492,-392.090,-53.711,0
1594888589.845,-16.602,10.254,-329.590,-62.988,0
1594888589.849,-20.508,-24.902,-389.648,-60.547,0
1594888589.853,-26.367,-241.699,-427.734,-60.547,0
1594888589.857,-16.602,-77.148,-360.352,-54.688,0
1594888589.860,-13.184,-356.445,-508.301,-50.293,0
1594888589.864,-22.461,-116.699,-472.168,-64.453,0
1594888589.868,-32.715,484.375,-277.832,-72.266,0
1594888589.872,-32.227,377.930,-267.578,-62.500,0
1594888589.876,-26.855,52.734,-359.863,-59.570,0
1594888589.888,-28.809,122.070,-310.059,-63.477,0
1594888589.892,-31.250,282.227,-239.746,-61.035,0
1594888589.896,-24.902,-201.172,-421.875,-57.129,0
1594888589.900,-24.414,-88.867,-314.941,-60.547,0
1594888589.904,-30.762,-187.500,-416.992,-53.223,0
1594888589.908,-27.832,-468.750,-571.777,-49.316,0
1594888589.912,-25.391,95.215,-370.605,-57.129,0
1594888589.915,-27.344,206.055,-347.656,-56.152,0
1594888589.919,-31.738,364.746,-252.441,-59.082,0
1594888589.923,-33.203,-174.316,-484.375,-52.246,0
1594888589.927,-40.039,-462.891,-551.270,-50.781,0
1594888589.931,-35.156,388.672,-259.766,-56.641,0
1594888589.927,-17.578,543.945,-207.520,-50.293,0
1594888589.931,-25.391,229.492,-274.902,-50.781,0
1594888589.935,-40.039,-5.859,-363.281,-54.688,0
1594888589.939,-33.203,183.105,-276.367,-52.734,0
1594888589.943,-24.902,234.863,-253.418,-50.293,0
1594888589.947,-19.043,82.520,-315.918,-50.781,0
1594888589.951,-33.203,-50.781,-399.414,-60.547,0
1594888589.954,-47.852,-325.684,-458.008,-60.059,0
1594888589.958,-40.039,252.930,-222.168,-55.664,0
1594888589.962,-31.738,624.023,-206.055,-68.359,0
1594888589.966,-20.508,213.867,-333.008,-71.289,0
1594888589.970,-19.531,-140.137,-487.305,-63.965,0
1594888589.981,-15.137,-51.758,-448.730,-57.129,0
1594888589.985,-7.812,604.004,-109.375,-55.176,0
1594888589.989,-15.625,272.461,-257.324,-59.082,0
1594888589.993,-18.066,69.336,-339.355,-49.805,0
1594888589.997,-9.766,-63.477,-420.898,-42.969,0
1594888590.001,-3.418,-280.762,-448.242,-55.176,0
1594888590.005,-7.812,436.035,-167.969,-68.848,0
1594888590.008,-18.066,467.285,-219.238,-63.477,0
1594888590.012,-18.066,242.676,-284.668,-65.918,0
1594888590.016,-12.695,-199.707,-389.160,-62.988,0
1594888590.020,-20.996,-174.316,-369.141,-57.129,0
1594888590.024,-25.879,338.867,-271.484,-62.500,0
1594888590.022,-24.414,310.059,-234.375,-53.223,0
1594888590.026,-24.414,62.500,-281.738,-53.711,0
1594888590.030,-21.973,-176.758,-363.770,-54.688,0
1594888590.034,-21.973,111.816,-277.832,-48.340,0
1594888590.038,-27.832,182.129,-319.824,-55.176,0
1594888590.042,-32.227,-80.078,-353.027,-53.711,0
1594888590.046,-27.344,-94.727,-338.867,-45.410,0
1594888590.049,-28.320,-350.586,-446.289,-45.898,0
1594888590.053,-30.273,-67.871,-364.746,-46.875,0
1594888590.057,-28.809,384.766,-274.902,-47.363,0
1594888590.061,-24.414,377.441,-197.754,-55.664,0
1594888590.065,-21.484,100.098,-289.062,-49.805,0
1594888590.075,-33.691,-67.871,-390.137,-46.387,0
1594888590.079,-37.109,184.570,-261.719,-50.781,0
1594888590.083,-30.273,-39.551,-343.750,-44.434,0
1594888590.087,-38.086,30.273,-315.430,-54.199,0
1594888590.091,-37.598,-195.312,-465.332,-57.129,0
1594888590.095,-25.391,-800.781,-656.250,-46.387,0
1594888590.099,-14.648,-71.289,-375.000,-50.293,0
1594888590.102,-13.184,680.176,-200.684,-53.223,0
1594888590.106,-20.508,504.395,-281.250,-59.570,0
1594888590.110,-19.531,-68.359,-375.977,-58.105,0
1594888590.114,-14.160,62.012,-270.996,-48.340,0
1594888590.118,-8.789,452.637,-173.828,-56.641,0
1594888590.114,-4.883,312.500,-205.566,-64.453,0
1594888590.118,-4.395,-15.625,-334.961,-76.172,0
1594888590.122,-0.488,-173.828,-358.398,-79.590,0
1594888590.126,13.184,203.125,-226.562,-72.266,0
1594888590.130,16.113,246.582,-266.113,-61.523,0
1594888590.134,-0.488,-111.816,-406.250,-53.223,0
1594888590.138,-21.973,-191.406,-416.504,-52.246,0
1594888590.141,-29.297,-482.422,-526.855,-43.945,0
1594888590.145,-25.879,-73.730,-406.738,-39.062,0
1594888590.149,-31.738,558.105,-219.238,-37.598,0
1594888590.153,-36.133,322.266,-285.156,-36.621,0
1594888590.157,-30.273,83.496,-339.355,-43.457,0
1594888590.169,-18.555,128.418,-289.062,-43.945,0
1594888590.173,-16.602,299.316,-215.332,-50.781,0
1594888590.177,-26.367,-44.922,-346.680,-69.824,0
1594888590.181,-25.879,-98.145,-307.617,-67.383,0
1594888590.185,-13.672,-333.496,-429.199,-58.105,0
1594888590.189,-15.137,-639.648,-558.594,-64.941,0
1594888590.193,-23.926,115.234,-321.777,-65.918,0
1594888590.196,-18.555,504.883,-244.141,-54.688,0
1594888590.200,-0.977,461.426,-226.562,-56.641,0
1594888590.204,-3.906,-170.410,-435.547,-56.641,0
1594888590.208,-18.555,-299.316,-474.121,-46.387,0
1594888590.212,-20.020,370.605,-250.488,-42.480,0
1594888590.210,-18.066,448.730,-166.992,-44.922,0
1594888590.214,-17.578,267.090,-202.148,-47.363,0
1594888590.218,-17.578,-90.820,-321.777,-50.781,0
1594888590.222,-17.090,74.707,-243.164,-48.340,0
1594888590.226,-8.301,152.832,-253.906,-35.645,0
1594888590.230,-1.953,-138.672,-354.004,-43.945,0
1594888590.234,-8.789,-336.914,-463.867,-51.270,0
1594888590.237,-12.207,-541.504,-503.906,-45.898,0
1594888590.241,-1.465,3.418,-321.777,-48.340,0
1594888590.245,4.395,463.867,-245.605,-47.363,0
1594888590.249,-4.395,309.082,-246.094,-47.363,0
1594888590.253,-12.207,23.438,-403.320,-49.805,0
1594888590.264,-10.742,-167.969,-474.121,-54.199,0
1594888590.268,-2.441,122.070,-274.414,-51.270,0
1594888590.272,4.395,96.191,-276.367,-43.945,0
1594888590.276,0.000,119.629,-275.879,-55.176,0
1594888590.280,-20.020,-243.164,-441.406,-58.105,0
1594888590.284,-28.320,-746.582,-595.215,-52.734,0
1594888590.288,-20.020,23.926,-334.473,-52.734,0
1594888590.291,-16.602,599.609,-171.387,-48.828,0
1594888590.295,-16.602,454.102,-240.723,-45.410,0
1594888590.299,-13.184,-294.434,-474.121,-46.875,0
1594888590.303,-15.625,-316.406,-428.711,-54.199,0
1594888590.307,-20.996,312.988,-242.676,-62.988,0
1594888590.302,-18.555,256.836,-268.066,-62.500,0
1594888590.306,-11.719,-34.668,-331.055,-58.594,0
1594888590.310,-4.883,-167.480,-333.496,-53.223,0
1594888590.314,-4.883,-7.812,-270.508,-45.898,0
1594888590.318,-5.859,77.637,-312.988,-46.387,0
1594888590.322,-8.789,-157.227,-426.758,-50.781,0
1594888590.326,-11.719,-98.633,-352.539,-52.734,0
1594888590.329,-7.812,-499.023,-543.945,-43.457,0
1594888590.333,-9.766,-307.129,-524.902,-47.852,0
1594888590.337,-10.742,575.684,-220.215,-56.641,0
1594888590.341,-2.441,562.012,-175.293,-51.270,0
1594888590.345,3.906,220.215,-256.836,-49.805,0
1594888590.356,5.371,-24.902,-355.957,-54.199,0
1594888590.360,-2.930,157.715,-254.395,-57.129,0
1594888590.364,-2.930,-91.797,-362.793,-54.199,0
1594888590.368,4.395,-8.301,-318.359,-60.059,0
1594888590.372,-11.230,-120.117,-395.996,-62.988,0
1594888590.376,-22.461,-602.051,-611.328,-48.828,0
1594888590.380,-17.090,15.625,-393.555,-47.852,0
1594888590.383,-25.391,516.602,-212.891,-62.988,0
1594888590.387,-31.738,597.168,-185.547,-63.965,0
1594888590.391,-31.250,-204.102,-494.141,-61.523,0
1594888590.395,-31.250,-453.613,-488.770,-65.918,0
1594888590.399,-17.578,515.625,-83.984,-65.918,0
1594888590.396,-13.672,586.426,-65.430,-66.895,0
1594888590.400,-17.090,261.230,-235.352,-63.477,0
1594888590.404,-10.742,-24.902,-329.590,-52.734,0
1594888590.408,-0.488,127.441,-200.684,-49.316,0
1594888590.412,11.719,264.160,-197.266,-52.734,0
1594888590.416,8.301,-164.551,-398.438,-45.410,0
1594888590.420,-1.465,-383.301,-488.281,-46.875,0
1594888590.423,1.953,-383.301,-440.918,-50.293,0
1594888590.427,-1.465,178.223,-233.398,-56.152,0
1594888590.431,-4.883,275.879,-300.781,-62.988,0
1594888590.435,-9.277,203.613,-312.500,-61.035,0
1594888590.439,-4.883,83.008,-409.668,-55.176,0
1594888590.450,1.465,-86.426,-443.359,-51.758,0
1594888590.454,-1.953,330.566,-274.902,-57.129,0
1594888590.458,-8.789,67.871,-369.629,-48.828,0
1594888590.462,-12.207,139.160,-294.434,-42.969,0
1594888590.466,1.465,-129.883,-453.125,-45.410,0
1594888590.470,2.930,-558.594,-598.145,-45.898,0
1594888590.474,-1.953,137.207,-349.609,-50.293,0
1594888590.477,-5.371,496.582,-259.277,-51.270,0
1594888590.481,-5.859,514.160,-221.680,-57.617,0
1594888590.485,-2.441,-31.250,-353.516,-58.105,0
1594888590.489,-7.812,-46.875,-319.336,-58.594,0
1594888590.493,-20.508,196.777,-316.406,-64.453,0
1594888590.491,-21.973,106.445,-309.082,-61.035,0
1594888590.495,-15.137,260.742,-256.348,-55.176,0
1594888590.499,-26.367,-79.590,-369.629,-51.270,0
1594888590.503,-38.086,14.648,-306.641,-52.734,0
1594888590.507,-32.715,75.195,-389.648,-52.734,0
1594888590.511,-14.160,-88.867,-360.352,-51.270,0
1594888590.515,-5.859,-48.340,-342.773,-55.176,0
1594888590.518,-14.160,-349.609,-496.582,-53.223,0
1594888590.522,-20.996,-25.391,-375.488,-58.594,0
1594888590.526,-18.066,488.770,-249.023,-63.965,0
1594888590.530,-18.066,479.004,-223.145,-69.336,0
1594888590.534,-28.320,40.039,-404.785,-68.359,0
1594888590.544,-34.180,-89.355,-412.598,-62.012,0
1594888590.548,-28.320,291.992,-240.234,-67.383,0
1594888590.552,-15.137,43.945,-346.191,-69.824,0
1594888590.556,-22.461,-12.207,-312.988,-70.801,0
1594888590.560,-30.273,-304.688,-493.652,-65.918,0
1594888590.564,-23.926,-835.449,-657.227,-57.129,0
1594888590.568,-13.184,-10.742,-351.562,-61.035,0
1594888590.571,-11.719,745.117,-168.457,-64.453,0
1594888590.575,-17.090,568.359,-233.398,-63.965,0
1594888590.579,-18.555,-94.727,-386.230,-58.594,0
1594888590.583,-15.137,-7.812,-261.230,-54.199,0
1594888590.587,-19.531,407.227,-200.684,-58.105,0
1594888590.583,-25.391,197.266,-268.555,-63.477,0
1594888590.587,-27.832,127.441,-270.996,-65.430,0
1594888590.591,-29.785,-76.172,-333.008,-69.824,0
1594888590.595,-30.762,62.500,-253.906,-75.684,0
1594888590.599,-31.738,26.855,-329.590,-75.684,0
1594888590.603,-29.785,-319.336,-479.004,-73.242,0
1594888590.607,-28.320,-229.492,-425.781,-71.777,0
1594888590.610,-25.879,-533.691,-514.160,-72.266,0
1594888590.614,-25.391,-180.176,-431.641,-71.777,0
1594888590.618,-32.715,468.262,-281.250,-70.801,0
1594888590.622,-27.344,469.727,-254.395,-67.383,0
1594888590.626,-13.184,312.988,-309.082,-71.289,1
1594888590.638,-19.043,54.688,-367.676,-72.266,0
1594888590.642,-23.926,241.699,-274.902,-80.078,0
1594888590.646,-15.137,78.125,-321.777,-75.195,0
1594888590.650,-14.648,142.090,-225.098,-62.988,0
1594888590.654,-17.090,-122.559,-403.320,-64.941,0
1594888590.658,-20.020,-506.836,-537.109,-62.500,0
1594888590.662,-17.578,112.793,-296.875,-66.406,0
1594888590.665,-13.672,489.258,-222.656,-68.359,0
1594888590.669,-20.508,374.512,-252.930,-66.895,0
1594888590.673,-26.367,-336.426,-500.000,-57.617,0
1594888590.677,-30.762,-441.406,-506.836,-50.293,0
1594888590.681,-23.438,475.586,-183.594,-46.875,0
1594888590.694,-12.695,579.102,-88.379,-46.875,0
1594888590.698,-10.254,159.668,-232.910,-46.387,0
1594888590.702,-9.766,9.766,-320.801,-49.316,0
1594888590.706,-17.578,222.168,-231.934,-53.223,0
1594888590.710,-20.996,197.754,-244.629,-49.805,0
1594888590.714,-18.555,-124.512,-355.957,-57.129,0
1594888590.718,-25.879,-332.520,-459.961,-69.336,0
1594888590.721,-26.855,-428.223,-452.148,-61.523,0
1594888590.725,-22.949,163.086,-182.617,-61.523,0
1594888590.729,-21.484,595.215,-136.230,-71.777,0
1594888590.733,-24.414,272.949,-267.578,-80.566,0
1594888590.737,-39.062,-373.047,-541.016,-84.961,0
1594888590.732,-46.387,-254.883,-398.438,-80.566,0
1594888590.736,-39.551,443.848,-102.051,-71.289,0
1594888590.740,-36.133,86.914,-330.078,-67.871,0
1594888590.744,-38.086,-101.562,-358.398,-69.824,0
1594888590.748,-30.762,-366.699,-463.379,-65.918,0
1594888590.752,-19.531,-455.566,-501.465,-59.570,0
1594888590.756,-21.484,254.883,-284.668,-63.965,0
1594888590.759,-24.902,257.324,-387.207,-69.824,0
1594888590.763,-21.973,164.062,-376.465,-70.801,0
1594888590.767,-31.250,-207.031,-417.480,-65.918,0
1594888590.771,-33.691,-213.379,-413.574,-55.664,0
1594888590.775,-28.320,299.805,-301.270,-55.176,0
1594888590.788,-27.832,187.012,-334.961,-53.223,0
1594888590.792,-19.043,86.426,-330.078,-44.434,0
1594888590.796,-19.531,-56.152,-350.098,-46.875,0
1594888590.800,-38.086,70.312,-320.312,-50.293,0
1594888590.804,-42.480,182.617,-321.777,-44.922,0
1594888590.808,-35.156,73.242,-323.730,-39.551,0
1594888590.812,-31.250,113.770,-295.898,-43.945,0
1594888590.815,-26.367,-323.730,-424.805,-43.457,0
1594888590.819,-30.273,-139.648,-352.051,-43.945,0
1594888590.823,-38.574,411.621,-201.172,-49.316,0
1594888590.827,-26.855,291.016,-118.652,-46.875,0
1594888590.831,-17.090,-117.676,-272.461,-52.734,0
1594888590.825,-22.461,-300.781,-349.121,-54.688,0
1594888590.829,-24.902,-79.590,-225.586,-49.316,0
1594888590.833,-16.113,-394.043,-334.961,-55.176,0
1594888590.837,3.906,-316.895,-303.223,-58.594,0
1594888590.841,7.812,-553.223,-475.098,-56.641,0
1594888590.845,-10.254,-748.047,-548.828,-64.941,0
1594888590.849,-11.230,-100.586,-313.477,-69.336,0
1594888590.852,-4.395,111.816,-283.203,-65.430,0
1594888590.856,-18.066,154.785,-291.016,-64.453,0
1594888590.860,-23.926,-495.117,-532.715,-60.547,0
1594888590.864,-20.508,-488.770,-461.426,-51.758,0
1594888590.868,-25.879,409.668,-180.176,-48.340,0
1594888590.881,-29.297,331.055,-233.398,-49.805,0
1594888590.885,-28.809,-109.375,-367.188,-53.223,0
1594888590.889,-28.320,-161.133,-350.098,-52.734,0
1594888590.893,-27.832,288.086,-73.242,-51.758,0
1594888590.897,-25.879,308.105,-79.590,-52.246,0
1594888590.901,-30.273,-250.000,-341.797,-53.711,0
1594888590.905,-35.156,-328.613,-372.070,-55.664,0
1594888590.908,-30.762,-415.527,-377.930,-50.781,0
1594888590.912,-29.785,-119.141,-268.066,-60.059,0
1594888590.916,-34.180,329.102,-223.145,-70.801,0
1594888590.920,-28.320,217.773,-242.188,-63.477,0
1594888590.924,-17.090,-171.387,-396.484,-59.570,0
1594888590.919,-15.137,-286.621,-426.758,-69.336,0
1594888590.923,-10.254,198.730,-225.098,-67.871,0
1594888590.927,-18.555,-99.609,-394.531,-64.453,0
1594888590.931,-36.133,33.691,-292.969,-64.941,0
1594888590.935,-39.551,-86.914,-345.215,-54.688,0
1594888590.939,-36.133,-497.070,-532.715,-46.875,0
1594888590.943,-41.504,6.348,-357.422,-49.316,0
1594888590.946,-31.250,288.086,-281.250,-48.828,0
1594888590.950,0.977,492.676,-214.355,-39.551,0
1594888590.954,-14.160,-208.008,-471.680,-39.062,0
1594888590.958,-42.969,-583.496,-588.867,-45.898,0
1594888590.962,-30.273,188.965,-324.219,-36.133,0
1594888590.960,-21.973,490.234,-201.172,-30.273,0
1594888590.964,-20.508,293.945,-265.137,-36.621,0
1594888590.968,-19.531,-286.133,-435.547,-32.227,0
1594888590.972,-15.137,-88.867,-313.477,-25.879,0
1594888590.976,-8.789,210.938,-278.809,-23.926,0
1594888590.980,-18.555,-12.695,-357.422,-37.598,0
1594888590.984,-10.254,-71.777,-391.602,-30.762,0
1594888590.987,-7.324,-442.871,-462.891,-4.883,0
1594888590.991,-14.648,10.742,-291.016,-12.207,0
1594888590.995,-1.953,582.520,-173.828,-15.137,0
1594888590.999,-11.230,354.004,-216.797,-10.254,0
1594888591.003,-30.762,-129.883,-434.570,-16.113,0
1594888591.014,-32.715,-255.859,-432.617,-13.184,0
1594888591.018,-26.855,69.824,-237.793,-13.184,0
1594888591.022,-15.137,-135.742,-382.324,-18.555,0
1594888591.026,-20.020,-0.977,-326.172,-25.391,0
1594888591.030,-17.090,-104.492,-396.973,-22.949,0
1594888591.034,2.441,-754.883,-619.629,-19.043,0
1594888591.038,-1.465,-14.648,-312.012,-29.785,0
1594888591.041,-25.391,598.145,-197.754,-28.320,0
1594888591.045,-36.133,329.590,-305.664,-27.832,0
1594888591.049,-35.156,-126.465,-351.074,-30.762,0
1594888591.053,-20.996,8.789,-224.121,-25.391,0
1594888591.057,-16.602,373.047,-190.918,-29.297,0
1594888591.052,-24.414,194.824,-245.605,-32.227,0
1594888591.056,-17.578,30.762,-265.625,-30.273,0
1594888591.060,-7.812,-150.879,-312.988,-37.598,0
1594888591.064,-11.230,-42.969,-283.691,-42.480,0
1594888591.068,-13.672,57.129,-271.484,-37.109,0
1594888591.072,-13.672,108.398,-195.312,-34.668,0
1594888591.076,-11.719,175.293,-164.551,-42.969,0
1594888591.079,-15.625,-435.547,-436.523,-41.016,0
1594888591.083,-28.320,-310.059,-403.320,-33.691,0
1594888591.087,-25.879,403.320,-190.430,-33.203,0
1594888591.091,-24.902,366.211,-170.410,-43.457,0
1594888591.095,-35.645,261.230,-79.102,-52.246,0
1594888591.107,-37.598,196.777,-62.500,-51.270,0
1594888591.111,-27.344,161.621,-115.234,-39.062,0
1594888591.115,-29.785,-247.070,-344.727,-40.039,0
1594888591.119,-33.203,-30.273,-221.680,-43.457,0
1594888591.123,-16.113,-172.363,-349.121,-25.391,0
1594888591.127,-26.367,-549.805,-511.719,-41.016,0
1594888591.131,-29.785,91.309,-278.809,-51.270,0
1594888591.134,-18.555,245.117,-260.742,-51.270,0
1594888591.138,-31.738,358.887,-203.613,-46.875,0
1594888591.142,-57.617,-296.875,-478.516,-34.180,0
1594888591.146,-53.223,-524.414,-507.324,-37.109,0
1594888591.150,-41.016,327.637,-239.746,-44.922,0
1594888591.163,-40.039,553.711,-147.461,-52.246,0
1594888591.167,-33.691,304.688,-229.004,-54.199,0
1594888591.171,-27.344,-4.883,-321.289,-50.781,0
1594888591.175,-18.066,201.660,-189.941,-47.852,0
1594888591.179,-18.066,251.465,-228.027,-51.758,0
1594888591.183,-24.902,-158.691,-415.527,-58.594,0
1594888591.187,-24.414,-358.887,-500.977,-57.129,0
1594888591.190,-16.602,-379.395,-423.828,-55.176,0
1594888591.194,-9.766,219.727,-155.762,-61.523,0
1594888591.198,-32.715,342.285,-258.789,-56.641,0
1594888591.202,-57.617,109.375,-332.520,-53.711,0
1594888591.206,-54.199,30.273,-386.230,-54.199,0
1594888591.200,-38.574,-51.270,-370.117,-47.852,0
1594888591.204,-26.367,374.512,-194.336,-54.199,0
1594888591.208,-28.320,71.289,-360.840,-58.594,0
1594888591.212,-27.344,12.207,-337.402,-58.594,0
1594888591.216,-15.137,-92.773,-405.762,-56.152,0
1594888591.220,-10.254,-244.629,-471.191,-54.199,0
1594888591.224,-13.184,172.852,-302.734,-62.500,0
1594888591.227,-22.949,195.801,-290.527,-75.684,0
1594888591.231,-20.020,309.570,-243.164,-75.195,0
1594888591.235,-13.184,-348.145,-481.445,-57.617,0
1594888591.239,-25.391,-498.047,-517.578,-56.152,0
1594888591.243,-24.414,359.863,-266.113,-66.406,0
1594888591.241,-10.254,365.723,-251.953,-72.266,0
1594888591.245,-1.953,203.613,-252.441,-77.148,0
1594888591.249,-1.953,-17.090,-311.035,-81.055,0
1594888591.253,-3.906,48.340,-294.922,-77.148,0
1594888591.257,-17.090,206.543,-282.227,-69.336,0
1594888591.261,-31.738,43.945,-261.719,-69.336,0
1594888591.265,-31.738,-60.059,-303.223,-73.730,0
1594888591.268,-26.367,-407.715,-430.664,-66.406,0
1594888591.272,-27.344,-145.996,-340.332,-63.477,0
1594888591.276,-17.578,345.215,-240.234,-71.289,0
1594888591.280,-3.906,356.445,-190.430,-70.312,0
1594888591.284,-8.789,-51.758,-377.930,-61.523,0
1594888591.294,-23.926,-252.441,-457.520,-62.012,0
1594888591.298,-25.391,133.789,-278.809,-63.477,0
1594888591.302,-21.973,-36.621,-320.312,-52.246,0
1594888591.306,-34.180,-186.523,-356.445,-51.758,0
1594888591.310,-38.086,-396.973,-464.844,-49.316,0
1594888591.314,-26.855,-931.641,-686.523,-31.250,0
1594888591.318,-15.137,-120.117,-351.074,-36.621,0
1594888591.321,-5.371,758.789,-58.594,-45.410,0
1594888591.325,-2.930,336.914,-308.105,-42.969,0
1594888591.329,-5.371,-155.762,-417.969,-45.410,0
1594888591.333,3.418,35.156,-258.301,-42.969,0
1594888591.337,0.488,314.453,-242.676,-46.875,0
1594888591.333,-15.137,121.094,-330.078,-53.711,0
1594888591.337,-9.277,-10.742,-328.613,-52.734,0
1594888591.341,-1.953,-4.395,-305.664,-50.293,0
1594888591.345,-2.930,243.652,-183.594,-51.758,0
1594888591.349,-7.812,81.055,-288.574,-57.129,0
1594888591.353,-5.859,-437.988,-497.559,-58.105,0
1594888591.357,-0.977,-376.465,-428.711,-59.082,0
1594888591.360,0.977,-449.707,-482.422,-60.547,0
1594888591.364,-11.230,-194.336,-434.570,-57.617,0
1594888591.368,-16.113,367.676,-317.871,-55.176,0
1594888591.372,-13.184,281.250,-325.195,-54.688,0
1594888591.376,-16.113,131.348,-294.922,-63.477,0
1594888591.388,-15.625,113.770,-301.758,-68.359,0
1594888591.392,-9.277,127.930,-301.758,-64.453,0
1594888591.396,-12.207,-175.781,-368.652,-56.152,0
1594888591.400,-34.180,41.992,-248.047,-65.918,0
1594888591.404,-38.086,-56.641,-350.586,-57.617,0
1594888591.408,-27.832,-581.543,-538.574,-41.016,0
1594888591.412,-41.016,-128.418,-359.863,-74.219,0
1594888591.415,-49.316,349.609,-196.777,-96.191,0
1594888591.419,-32.227,491.699,-87.402,-84.961,0
1594888591.423,-30.762,-287.109,-430.176,-70.801,0
1594888591.427,-39.062,-497.070,-476.074,-75.195,0
1594888591.431,-43.457,277.344,-201.660,-86.426,0
1594888591.428,-37.598,342.773,-197.266,-89.844,0
1594888591.432,-16.602,171.387,-215.820,-84.473,0
1594888591.436,-22.461,-198.730,-371.582,-86.426,0
1594888591.440,-27.344,-16.602,-250.977,-84.473,0
1594888591.444,-10.254,210.449,-174.805,-75.195,0
1594888591.448,-17.578,-2.930,-229.492,-86.426,0
1594888591.452,-36.621,-202.148,-323.730,-93.262,0
1594888591.455,-38.574,-582.520,-449.219,-89.355,0
1594888591.459,-34.668,-123.047,-276.367,-99.609,0
1594888591.463,-41.504,353.516,-230.469,-116.211,0
1594888591.467,-30.273,157.227,-244.629,-114.258,0
1594888591.471,-36.133,-216.797,-412.598,-117.676,0
1594888591.483,-42.480,-255.371,-415.039,-119.141,0
1594888591.487,-18.555,256.348,-191.406,-115.234,0
1594888591.491,-18.555,-14.160,-330.078,-136.719,1
1594888591.495,-33.691,-111.816,-321.289,-139.160,0
1594888591.499,-25.391,-211.426,-415.527,-120.605,0
1594888591.503,-20.508,-779.297,-642.578,-117.188,0
1594888591.507,-39.551,-163.574,-424.805,-125.000,0
1594888591.510,-47.363,485.840,-253.418,-104.004,0
1594888591.514,-39.062,308.105,-325.195,-90.820,0
1594888591.518,-22.949,14.160,-317.871,-95.215,0
1594888591.522,-25.879,83.984,-194.824,-89.355,0
1594888591.526,-29.785,258.789,-186.523,-87.891,0
1594888591.521,-20.996,196.777,-208.008,-95.215,0
1594888591.525,-7.324,51.270,-243.164,-93.262,0
1594888591.529,9.766,-266.602,-371.582,-82.031,0
1594888591.533,12.695,-283.691,-398.926,-88.867,0
1594888591.537,6.348,-126.465,-379.395,-86.914,0
1594888591.541,4.395,-185.059,-391.113,-79.590,0
1594888591.545,9.277,-19.043,-292.969,-80.078,0
1594888591.548,8.789,-569.824,-518.066,-65.430,0
1594888591.552,-1.465,-537.598,-544.434,-55.176,0
1594888591.556,-2.930,437.012,-191.406,-62.012,0
1594888591.560,1.465,491.211,-110.352,-65.918,0
1594888591.564,-2.930,-145.996,-397.461,-59.570,0
1594888591.575,-7.324,-366.699,-508.789,-54.199,0
1594888591.579,-3.906,-0.977,-343.262,-50.781,0
1594888591.583,3.906,-32.227,-319.336,-50.293,0
1594888591.587,8.301,17.578,-265.137,-55.664,0
1594888591.591,5.859,-344.727,-474.609,-51.270,0
1594888591.595,0.000,-624.512,-587.891,-43.457,0
1594888591.599,1.953,31.250,-306.641,-44.434,0
1594888591.602,16.602,313.477,-228.516,-45.898,0
1594888591.606,-13.672,388.672,-187.500,-44.922,0
1594888591.610,-42.969,-465.332,-550.293,-41.504,0
1594888591.614,-20.508,-626.465,-522.461,-42.480,0
1594888591.618,-8.301,347.168,-157.715,-45.410,0
1594888591.614,-8.789,358.887,-255.371,-48.340,0
1594888591.618,-2.930,95.215,-317.383,-48.828,0
1594888591.622,-14.648,-99.609,-328.613,-52.246,0
1594888591.626,-28.320,58.105,-238.770,-62.988,0
1594888591.630,-16.113,98.633,-247.070,-63.477,0
1594888591.634,-15.625,-231.445,-404.297,-56.641,0
1594888591.638,-16.602,-216.797,-332.031,-59.082,0
1594888591.641,-9.277,-259.766,-274.902,-61.035,0
1594888591.645,-5.371,-144.531,-327.637,-62.012,0
1594888591.649,-6.836,269.531,-284.180,-67.871,0
1594888591.653,-4.883,430.176,-254.883,-71.777,0
1594888591.657,0.000,172.852,-365.723,-65.430,0
1594888591.669,-1.465,18.066,-403.320,-63.965,0
1594888591.673,-4.395,459.961,-266.113,-66.895,0
1594888591.677,-9.277,190.918,-368.164,-67.871,0
1594888591.681,-5.859,87.891,-327.148,-70.312,0
1594888591.685,2.441,94.727,-363.770,-65.430,0
1594888591.689,-9.277,-310.547,-504.395,-64.453,0
1594888591.693,-19.043,217.773,-306.641,-64.453,0
1594888591.696,-6.348,527.344,-283.691,-65.918,0
1594888591.700,3.418,501.465,-247.559,-64.453,0
1594888591.704,-9.277,-41.016,-386.719,-58.594,0
1594888591.708,-17.090,-252.441,-483.398,-60.547,0
1594888591.712,-10.254,210.938,-342.285,-45.898,0
1594888591.710,-16.113,395.508,-232.422,-49.316,0
1594888591.714,-33.203,441.895,-237.793,-85.449,0
1594888591.718,-21.973,36.621,-342.773,-69.336,0
1594888591.722,-26.367,96.191,-261.719,-75.684,0
1594888591.726,-27.344,259.766,-268.066,-99.609,0
1594888591.730,0.977,282.715,-214.844,-77.637,0
1594888591.734,-21.973,110.840,-304.199,-88.867,0
1594888591.737,-46.875,-469.238,-480.469,-96.680,0
1594888591.741,-35.645,-32.227,-299.316,-81.055,0
1594888591.745,-23.438,701.660,-92.773,-79.590,0
1594888591.749,-21.484,585.938,-118.652,-82.031,0
1594888591.753,-15.137,11.230,-405.273,-78.125,0
1594888591.764,-13.184,-105.957,-415.039,-80.566,0
1594888591.768,-11.719,219.727,-231.934,-86.426,0
1594888591.772,2.930,-3.418,-328.125,-82.031,0
1594888591.776,8.301,-179.688,-434.570,-84.473,0
1594888591.780,2.930,-283.203,-523.926,-79.102,0
1594888591.784,-0.488,-738.770,-693.848,-65.918,0
1594888591.788,5.371,-182.129,-489.258,-72.266,0
1594888591.791,0.000,729.004,-221.680,-70.801,0
1594888591.795,-0.977,600.098,-300.781,-65.918,0
1594888591.799,14.648,219.727,-350.098,-65.918,0
1594888591.803,18.555,285.645,-216.797,-64.453,0
1594888591.807,18.555,395.020,-203.125,-62.012,0
1594888591.802,-11.719,207.520,-290.527,-53.223,0
1594888591.806,-50.781,59.082,-325.684,-50.781,0
1594888591.810,-40.039,30.762,-294.434,-46.387,0
1594888591.814,-24.414,232.910,-239.258,-36.621,0
1594888591.818,-20.020,46.387,-378.418,-38.086,0
1594888591.822,-8.301,-145.508,-383.301,-42.480,0
1594888591.826,-7.324,-23.926,-302.246,-45.410,0
1594888591.829,-13.672,-496.582,-496.094,-45.410,0
1594888591.833,-18.555,-327.637,-487.793,-46.875,0
1594888591.837,-17.090,385.254,-315.918,-53.223,0
1594888591.841,-12.207,489.258,-200.684,-46.875,0
1594888591.845,-7.324,291.016,-250.488,-46.387,0
1594888591.856,-14.160,-14.648,-393.555,-46.875,0
1594888591.860,-20.996,102.051,-306.152,-51.758,0
1594888591.864,-19.531,-17.090,-331.055,-62.988,0
1594888591.868,-26.855,65.430,-259.277,-70.801,0
1594888591.872,-36.133,-147.461,-400.879,-64.941,0
1594888591.876,-44.922,-495.117,-567.871,-58.594,0
1594888591.880,-37.109,-9.766,-362.793,-53.223,0
1594888591.883,-23.438,293.457,-303.223,-44.434,0
1594888591.887,-25.879,296.387,-274.414,-42.969,0
1594888591.891,-26.855,-215.332,-443.848,-36.133,0
1594888591.895,-25.879,-403.320,-490.723,-42.969,0
1594888591.899,-11.230,425.781,-193.359,-55.664,0
1594888591.912,-1.953,521.973,-200.684,-59.082,0
1594888591.916,-15.137,170.898,-336.426,-55.176,0
1594888591.920,-30.273,-141.602,-402.344,-44.434,0
1594888591.924,-31.250,129.883,-231.445,-47.363,0
1594888591.928,-21.973,239.258,-248.047,-47.852,0
1594888591.932,-24.414,-128.906,-380.859,-48.828,0
1594888591.936,-27.344,-273.438,-458.008,-52.734,0
1594888591.939,-26.367,-466.309,-421.387,-50.781,0
1594888591.943,-11.230,106.445,-191.406,-55.664,0
1594888591.947,0.000,480.957,-248.047,-62.500,0
1594888591.951,-1.953,129.883,-340.332,-51.270,0
1594888591.955,4.883,-173.828,-435.547,-40.527,0
1594888591.950,12.695,-208.008,-417.480,-45.410,0
1594888591.954,6.836,292.480,-208.984,-50.781,0
1594888591.958,-1.465,18.555,-386.230,-54.688,0
1594888591.962,10.742,-62.988,-357.910,-42.969,0
1594888591.966,7.324,-124.023,-385.742,-39.551,0
1594888591.970,-17.090,-344.238,-456.055,-53.223,0
1594888591.974,-8.789,144.531,-269.043,-41.504,0
1594888591.977,-2.930,254.395,-271.973,-35.645,0
1594888591.981,-16.113,422.852,-161.621,-30.762,0
1594888591.985,-23.926,-110.840,-348.633,-11.230,0
1594888591.989,-21.484,-493.652,-482.422,-16.602,0
1594888591.993,-23.438,75.684,-310.547,-30.762,0
1594888591.991,-12.695,210.938,-281.738,-21.973,0
1594888591.995,-3.906,98.145,-293.945,-11.719,0
1594888591.999,-14.648,-167.480,-346.191,-18.555,0
1594888592.003,-5.371,-70.801,-337.891,-12.207,0
1594888592.007,-6.348,83.984,-328.613,-11.719,0
1594888592.011,-5.859,-61.035,-325.195,-11.230,0
1594888592.015,9.277,-83.008,-389.648,0.977,0
1594888592.018,5.371,-391.602,-436.523,-4.395,0
1594888592.022,2.441,-101.562,-296.387,-9.766,0
1594888592.026,13.184,337.891,-267.578,0.488,0
1594888592.030,21.484,375.977,-204.590,10.254,0
1594888592.034,4.395,89.844,-315.918,3.418,0
1594888592.044,-11.230,-147.461,-423.828,-3.906,0
1594888592.048,2.441,185.059,-240.234,-1.465,0
1594888592.052,19.043,-26.855,-304.199,-4.883,0
1594888592.056,9.277,-133.301,-303.711,-15.625,0
1594888592.060,3.418,-276.367,-431.152,-22.949,0
1594888592.064,13.672,-937.012,-737.305,-15.137,0
1594888592.068,5.371,-246.094,-416.504,-18.066,0
1594888592.071,-7.324,630.371,-189.453,-25.391,0
1594888592.075,-7.812,360.840,-358.887,-25.879,0
1594888592.079,-9.766,-62.012,-411.133,-27.832,0
1594888592.083,0.977,112.305,-270.996,-23.438,0
1594888592.087,14.648,441.895,-228.027,-15.625,0
1594888592.083,0.000,270.996,-285.645,-16.602,0
1594888592.087,-10.742,75.684,-307.129,-19.043,0
1594888592.091,7.812,58.594,-263.672,-20.508,0
1594888592.095,16.113,275.391,-165.527,-27.344,0
1594888592.099,12.695,101.074,-294.922,-35.156,0
1594888592.103,6.348,-348.145,-441.895,-34.180,0
1594888592.107,0.977,-218.262,-335.449,-31.250,0
1594888592.110,5.371,-529.297,-486.816,-27.344,0
1594888592.114,6.348,-427.246,-459.961,-36.621,0
1594888592.118,-5.859,324.219,-250.488,-49.805,0
1594888592.122,-11.719,254.883,-300.781,-41.504,0
1594888592.126,-0.977,-4.883,-354.980,-43.945,0
1594888592.138,12.695,-119.629,-366.211,-44.922,0
1594888592.142,24.902,150.879,-278.809,-37.109,0
1594888592.146,19.043,-78.125,-356.445,-40.527,0
1594888592.150,7.324,26.855,-244.141,-58.105,0
1594888592.154,15.625,15.137,-320.312,-60.547,0
1594888592.158,7.324,-621.094,-569.824,-64.453,0
1594888592.162,-4.395,-230.957,-389.160,-56.152,0
1594888592.165,-8.789,354.492,-208.984,-52.734,0
1594888592.169,-23.926,450.195,-191.895,-73.242,0
1594888592.173,-19.043,-175.293,-401.855,-71.289,0
1594888592.177,-27.832,-390.625,-420.898,-69.336,0
1594888592.181,-44.434,210.449,-201.660,-69.336,0
1594888592.178,-29.785,199.219,-180.664,-58.105,0
1594888592.182,-19.531,-21.973,-279.785,-52.246,0
1594888592.186,-22.461,-479.492,-436.523,-52.734,0
1594888592.190,-20.508,-279.785,-297.852,-58.594,0
1594888592.194,-2.441,132.324,-208.008,-61.035,0
1594888592.198,-3.906,-108.887,-279.785,-61.035,0
1594888592.202,-18.066,-362.305,-370.605,-67.383,0
1594888592.205,-5.371,-382.324,-369.629,-60.059,0
1594888592.209,7.812,41.992,-210.449,-54.199,0
1594888592.213,18.066,199.219,-178.223,-60.059,0
1594888592.217,14.160,61.523,-235.352,-53.711,0
1594888592.221,7.812,-352.539,-426.758,-53.223,0
1594888592.233,9.277,-688.965,-489.258,-55.664,0
1594888592.237,5.371,-144.531,-292.969,-54.199,0
1594888592.241,14.648,-96.191,-384.766,-55.176,0
1594888592.245,12.207,-55.176,-349.609,-48.340,0
1594888592.249,-3.906,-48.828,-436.523,-39.062,0
1594888592.253,-8.789,-738.281,-625.977,-33.691,0
1594888592.257,-16.602,-146.484,-339.844,-41.016,0
1594888592.260,-20.508,520.020,-253.418,-44.434,0
1594888592.264,-9.766,467.285,-293.457,-38.086,0
1594888592.268,-2.441,-94.238,-403.809,-35.645,0
1594888592.272,-3.906,-166.504,-371.582,-42.480,0
1594888592.276,-4.883,259.277,-311.523,-41.016,0
1594888592.271,-25.391,250.977,-276.855,-44.434,0
1594888592.275,-25.879,347.656,-226.074,-55.176,0
1594888592.279,-5.371,129.883,-333.008,-60.059,0
1594888592.283,-7.324,-25.879,-338.867,-62.500,0
1594888592.287,0.000,77.637,-324.219,-53.223,0
1594888592.291,10.254,-70.312,-407.715,-44.434,2
1594888592.295,-2.441,8.789,-322.754,-39.551,0
1594888592.298,-11.719,-501.953,-524.902,-31.738,0
1594888592.302,-20.020,-428.223,-499.023,-45.410,0
1594888592.306,-30.273,647.949,-157.715,-60.059,0
1594888592.310,-21.973,674.805,-171.387,-53.711,0
1594888592.314,-15.625,251.465,-320.312,-54.199,0
1594888592.325,-14.648,-98.633,-444.824,-54.688,0
1594888592.329,-11.719,86.914,-337.891,-57.617,0
1594888592.333,-7.812,15.625,-350.586,-52.734,0
1594888592.337,-16.113,127.441,-296.875,-54.688,0
1594888592.341,-22.461,-93.262,-451.172,-60.059,0
1594888592.345,-21.484,-652.832,-601.562,-52.734,0
1594888592.349,-20.996,-136.719,-371.094,-57.129,0
1594888592.352,-13.184,272.461,-313.477,-57.129,0
1594888592.356,-12.695,535.156,-221.680,-60.059,0
1594888592.360,-10.254,-80.566,-488.281,-54.688,0
1594888592.364,-2.930,-502.441,-539.551,-49.316,0
1594888592.368,-0.488,480.469,-110.352,-61.523,0
1594888592.381,0.000,565.430,-161.621,-62.988,0
1594888592.385,-7.324,125.488,-355.469,-62.012,0
1594888592.389,-16.113,-140.137,-409.180,-59.082,0
1594888592.393,-12.207,179.199,-183.594,-53.711,0
1594888592.397,-7.812,402.832,-60.547,-56.152,0
1594888592.401,-10.742,-114.746,-321.289,-46.875,0
1594888592.405,-16.602,-291.992,-413.574,-41.504,0
1594888592.408,-29.785,-393.555,-325.195,-53.223,0
1594888592.412,-32.715,-106.445,-272.461,-61.523,0
1594888592.416,-24.414,120.117,-332.031,-49.805,0
1594888592.420,-19.531,-7.324,-354.980,-39.062,0
1594888592.424,-6.348,-41.504,-404.297,-40.527,0
1594888592.419,3.418,-5.371,-346.191,-40.527,0
1594888592.423,6.836,267.090,-244.141,-40.039,0
1594888592.427,8.789,-44.434,-381.836,-36.133,0
1594888592.431,8.789,33.203,-289.062,-36.133,0
1594888592.435,6.836,33.203,-305.176,-43.457,0
1594888592.439,9.766,-450.684,-491.699,-45.410,0
1594888592.443,6.836,-136.719,-359.863,-46.875,0
1594888592.446,0.977,240.234,-255.371,-53.711,0
1594888592.450,7.812,419.922,-171.387,-59.082,0
1594888592.454,12.695,-241.699,-429.199,-55.664,0
1594888592.458,8.789,-647.949,-562.012,-58.105,0
1594888592.462,-0.488,-3.418,-314.453,-64.941,0
1594888592.460,-4.883,137.207,-254.883,-58.105,0
1594888592.464,1.465,229.492,-239.258,-50.293,0
1594888592.468,6.836,-127.441,-379.395,-45.410,0
1594888592.472,7.812,-131.348,-312.988,-45.898,0
1594888592.476,1.953,225.098,-272.949,-44.922,0
1594888592.480,-14.648,78.125,-319.824,-45.898,0
1594888592.484,-13.184,79.590,-293.457,-41.992,0
1594888592.487,-3.418,-380.371,-410.645,-40.527,0
1594888592.491,-12.695,-134.766,-321.289,-56.152,0
1594888592.495,-18.066,560.547,-206.543,-65.918,0
1594888592.499,-10.254,480.469,-229.492,-61.035,0
1594888592.503,-20.996,62.500,-366.211,-65.918,0
1594888592.513,-14.648,-129.883,-416.992,-60.059,0
1594888592.517,0.000,311.035,-207.031,-45.898,0
1594888592.521,-5.371,232.910,-235.840,-49.805,0
1594888592.525,-8.789,-53.711,-333.496,-56.152,0
1594888592.529,-13.672,-95.215,-395.020,-54.199,0
1594888592.533,-12.695,-623.047,-592.773,-43.945,0
1594888592.537,-11.230,-313.477,-445.801,-40.039,0
1594888592.540,-8.789,448.242,-255.859,-44.434,0
1594888592.544,-5.859,377.441,-326.660,-40.039,0
1594888592.548,4.883,170.410,-309.570,-39.062,0
1594888592.552,10.742,378.906,-146.973,-44.922,0
1594888592.556,3.418,510.254,-164.551,-46.875,0
1594888592.552,-8.789,183.105,-275.879,-51.270,0
1594888592.556,-12.695,135.254,-284.668,-62.500,0
1594888592.560,-8.789,59.570,-291.992,-73.242,0
1594888592.564,-13.672,200.684,-203.613,-78.125,0
1594888592.568,-11.719,69.336,-311.523,-68.359,0
1594888592.572,-1.465,-316.895,-435.547,-56.152,0
1594888592.576,1.465,-32.715,-284.668,-54.199,0
1594888592.579,3.906,-382.324,-430.664,-50.293,0
1594888592.583,-3.418,-389.160,-462.891,-52.734,0
1594888592.587,-9.766,381.348,-247.070,-54.688,0
1594888592.591,-4.395,576.660,-209.473,-55.664,0
1594888592.595,3.418,380.371,-308.105,-60.059,0
1594888592.606,3.906,190.918,-358.398,-56.152,0
1594888592.610,0.977,370.605,-262.207,-55.176,0
1594888592.614,-6.348,91.309,-385.742,-55.176,0
1594888592.618,-18.066,327.637,-192.871,-60.059,0
1594888592.622,-28.320,263.184,-253.906,-56.152,0
1594888592.626,-32.715,-447.266,-599.121,-46.875,0
1594888592.630,-14.648,-50.781,-358.398,-46.387,0
1594888592.633,-11.230,436.035,-197.266,-50.293,0
1594888592.637,-24.902,378.906,-255.859,-49.316,0
1594888592.641,-10.742,-379.395,-539.551,-14.160,0
1594888592.645,10.742,-512.695,-522.949,-13.184,0
1594888592.649,-10.742,415.039,-203.613,-70.801,0
1594888592.646,-24.902,670.410,-215.820,-83.496,0
1594888592.650,-24.414,453.613,-325.195,-79.590,0
1594888592.654,-24.902,162.598,-379.395,-89.844,0
1594888592.658,-36.621,207.520,-292.480,-96.680,0
1594888592.662,-55.664,342.285,-262.695,-116.211,0
1594888592.666,-55.176,64.453,-325.684,-129.395,0
1594888592.670,-60.547,-166.504,-397.461,-136.719,0
1594888592.673,-61.523,-462.402,-429.688,-141.113,0
1594888592.677,-48.828,-51.758,-264.648,-148.438,0
1594888592.681,-36.133,521.973,-203.613,-140.137,0
1594888592.685,-39.062,372.559,-303.223,-135.742,0
1594888592.689,-36.621,-101.562,-480.469,-152.344,0
1594888592.701,-28.320,-131.836,-363.770,-154.297,0
1594888592.705,-31.738,527.344,-104.980,-154.785,0
1594888592.709,-41.016,198.730,-356.934,-146.484,0
1594888592.713,-47.852,15.625,-357.910,-136.230,0
1594888592.717,-34.668,77.148,-359.863,-122.559,0
1594888592.721,-18.555,-242.676,-468.262,-107.910,0
1594888592.725,-20.508,165.039,-264.648,-115.723,0
1594888592.728,-20.020,390.137,-289.062,-111.816,0
1594888592.732,-11.719,437.012,-244.629,-101.074,0
1594888592.736,4.883,-58.105,-384.766,-90.332,0
1594888592.740,-5.371,-209.473,-410.156,-83.984,0
1594888592.744,-29.785,317.383,-267.578,-83.008,0
1594888592.757,-21.973,364.746,-241.211,-77.148,0
1594888592.761,-8.301,255.859,-251.953,-69.824,0
1594888592.765,-6.836,-63.477,-342.285,-63.965,0
1594888592.769,-7.324,127.930,-244.629,-65.430,0
1594888592.773,-13.184,296.875,-255.859,-63.965,0
1594888592.777,-21.484,47.363,-313.477,-51.758,0
1594888592.781,-9.277,75.684,-274.902,-41.992,0
1594888592.784,-7.812,-508.789,-516.602,-40.039,0
1594888592.788,-11.230,-442.383,-474.609,-41.992,0
1594888592.792,-3.906,422.363,-211.426,-49.805,0
1594888592.796,-9.277,473.633,-237.305,-49.805,0
1594888592.800,-14.648,64.453,-386.719,-47.363,0
1594888592.794,-14.160,-170.898,-425.293,-43.945,0
1594888592.798,-12.695,259.277,-241.211,-37.109,0
1594888592.802,-7.812,137.695,-313.965,-31.738,0
1594888592.806,-6.348,126.465,-249.512,-41.016,0
1594888592.810,-11.230,-145.508,-416.016,-44.922,0
1594888592.814,-15.625,-613.770,-574.219,-40.527,0
1594888592.818,-18.066,-142.578,-313.477,-45.898,0
1594888592.821,-11.230,186.523,-283.203,-53.711,0
1594888592.825,-19.043,391.602,-245.117,-57.617,0
1594888592.829,-28.809,-255.859,-494.629,-52.246,0
1594888592.833,-10.254,-469.727,-500.977,-48.340,0
1594888592.837,2.930,431.641,-197.754,-54.199,0
1594888592.850,0.488,527.344,-223.145,-47.852,0
1594888592.854,-5.859,229.004,-359.863,-51.270,0
1594888592.858,-7.812,-155.762,-412.598,-62.988,0
1594888592.862,-6.836,115.723,-219.727,-65.430,0
1594888592.866,-14.160,265.625,-321.289,-60.059,0
1594888592.870,-20.508,-155.762,-434.082,-54.688,0
1594888592.874,-15.137,-87.891,-362.793,-48.340,0
1594888592.877,-6.348,-403.809,-436.035,-47.363,0
1594888592.881,-18.555,-227.539,-340.820,-47.852,0
1594888592.885,-35.156,399.902,-266.113,-42.969,0
1594888592.889,-25.879,427.734,-214.844,-44.434,0
1594888592.893,-9.277,217.285,-248.535,-48.828,0
1594888592.888,-7.812,-60.059,-351.562,-48.340,0
1594888592.892,-17.090,146.484,-273.438,-46.387,0
1594888592.896,-14.648,-87.891,-370.605,-48.340,0
1594888592.900,-8.789,127.441,-203.613,-54.199,0
1594888592.904,-0.488,140.137,-268.555,-56.641,0
1594888592.908,1.953,-402.344,-497.559,-55.664,0
1594888592.912,-3.418,-62.500,-348.145,-60.547,0
1594888592.915,-15.137,242.188,-255.859,-58.594,0
1594888592.919,-30.762,484.863,-141.602,-55.176,0
1594888592.923,-38.086,-89.355,-375.488,-59.082,0
1594888592.927,-35.645,-661.621,-559.082,-53.711,0
1594888592.931,-32.715,46.875,-270.508,-51.270,0
1594888592.928,-31.250,454.102,-147.949,-51.270,0
1594888592.932,-27.832,278.809,-246.582,-51.270,0
1594888592.936,-32.227,-412.598,-454.590,-48.828,0
1594888592.940,-36.133,-360.840,-333.008,-53.223,0
1594888592.944,-29.297,158.691,-229.980,-60.547,0
1594888592.948,-19.531,-105.469,-347.656,-68.359,0
1594888592.952,-30.273,-321.777,-413.086,-75.684,0
1594888592.955,-34.180,-627.930,-450.684,-69.824,0
1594888592.959,-18.555,-219.238,-293.945,-62.988,0
1594888592.963,-14.160,397.461,-209.473,-71.777,0
1594888592.967,-18.555,247.559,-251.953,-73.730,0
1594888592.971,-30.762,42.480,-304.688,-68.848,0
1594888592.983,-38.086,-93.750,-340.332,-63.965,0
1594888592.987,-20.020,66.895,-245.117,-39.551,0
1594888592.991,-24.902,-166.016,-329.590,-40.039,0
1594888592.995,-57.129,-344.727,-384.277,-80.078,0
1594888592.999,-41.504,-373.535,-456.543,-75.684,0
1594888593.003,-21.484,-947.266,-672.852,-57.617,0
1594888593.007,-39.062,-405.762,-414.062,-78.125,0
1594888593.010,-43.945,611.328,-166.992,-87.402,0
1594888593.014,-40.527,451.172,-291.504,-77.148,0
1594888593.018,-41.992,171.387,-242.188,-74.707,0
1594888593.022,-40.039,250.488,-144.531,-73.730,0
1594888593.026,-32.227,222.168,-283.691,-76.172,0
1594888593.021,-23.438,48.828,-314.941,-75.195,0
1594888593.025,-18.066,116.699,-227.539,-62.988,0
1594888593.029,-20.996,61.523,-256.348,-62.500,0
1594888593.033,-28.320,36.133,-271.484,-64.941,0
