timestamps,TP9,AF7,AF8,TP10,Right AUX,Marker0
1528310541.967,-0.977,27.832,45.898,3.906,73.242,0
1528310541.971,2.441,30.273,38.086,-11.719,38.086,0
1528310541.975,12.695,29.297,27.832,-0.977,16.113,0
1528310541.979,9.766,32.715,50.781,21.484,5.859,0
1528310541.983,10.742,35.645,60.059,10.254,19.531,0
1528310541.987,-2.930,24.902,45.410,-8.789,5.371,0
1528310541.991,-16.602,28.809,51.270,-11.719,-0.977,0
1528310541.994,5.371,34.180,58.594,8.789,19.043,0
1528310541.998,12.207,25.391,53.711,9.766,33.203,0
1528310542.002,6.836,27.832,55.176,13.184,56.641,0
1528310542.006,8.301,33.691,50.781,10.254,49.316,0
1528310542.010,31.250,36.621,45.898,4.883,23.438,0
1528310542.028,29.297,33.203,53.711,20.996,61.035,0
1528310542.032,13.184,32.715,55.664,28.809,76.660,0
1528310542.036,8.301,32.715,48.828,16.113,23.438,0
1528310542.040,8.789,32.715,49.805,8.789,-8.301,0
1528310542.044,20.020,36.621,50.781,21.484,-3.906,0
1528310542.048,30.273,38.574,42.480,21.973,49.316,0
1528310542.052,23.926,38.574,41.016,16.113,35.645,0
1528310542.055,19.043,32.227,43.945,8.789,27.832,0
1528310542.059,20.020,29.785,43.945,8.789,11.719,0
1528310542.063,18.066,33.691,51.270,20.996,3.418,0
1528310542.067,7.812,34.180,44.922,2.441,16.602,0
1528310542.071,10.742,35.645,44.922,-1.465,-6.348,0
1528310542.068,25.391,39.551,59.082,22.949,24.902,0
1528310542.072,18.555,34.668,53.223,11.719,54.199,0
1528310542.076,17.090,34.180,46.875,10.254,-8.789,0
1528310542.080,18.066,37.109,49.316,13.672,-50.293,0
1528310542.084,16.113,39.062,54.688,15.625,7.812,0
1528310542.088,22.949,38.086,58.105,22.461,37.109,0
1528310542.092,20.508,33.203,53.223,17.090,25.391,0
1528310542.095,8.301,30.273,51.758,7.324,17.090,0
1528310542.099,13.184,34.180,43.945,5.859,7.324,0
1528310542.103,16.602,36.621,49.805,12.207,21.973,0
1528310542.107,13.184,34.668,65.430,22.461,93.750,0
1528310542.111,22.461,37.109,56.641,19.531,73.242,0
1528310542.128,19.531,38.086,52.246,13.672,-7.324,0
1528310542.132,20.996,40.039,56.641,22.461,-16.602,0
1528310542.136,43.945,44.922,58.105,32.227,-0.977,0
1528310542.140,26.367,41.992,55.176,12.207,17.090,0
1528310542.144,5.371,38.086,53.223,-0.977,89.355,0
1528310542.148,28.320,43.945,60.059,33.691,105.469,0
1528310542.152,32.227,40.039,58.594,41.016,79.102,0
1528310542.155,20.996,29.297,47.852,9.766,86.426,0
1528310542.159,6.836,31.738,46.875,-1.465,63.477,0
1528310542.163,3.906,36.621,51.758,2.930,48.828,0
1528310542.167,20.508,39.551,56.152,-33.691,76.660,0
1528310542.171,22.949,41.504,49.316,-17.578,46.387,0
1528310542.170,8.789,41.016,41.016,30.762,39.062,0
1528310542.174,9.277,40.039,42.480,50.781,14.648,0
1528310542.178,17.090,37.598,46.875,9.277,-15.625,0
1528310542.182,11.230,36.133,49.805,20.508,12.695,0
1528310542.186,4.883,40.527,52.246,-4.395,52.246,0
1528310542.190,7.324,39.551,51.758,-35.645,38.574,0
1528310542.194,20.996,37.109,51.270,37.598,4.395,0
1528310542.197,36.621,41.504,56.641,17.090,53.223,0
1528310542.201,24.414,40.527,57.129,56.152,69.824,0
1528310542.205,11.719,38.086,53.711,43.945,46.387,0
1528310542.209,18.555,36.133,43.945,-5.859,29.785,0
1528310542.213,25.879,37.109,48.340,11.230,7.324,0
1528310542.207,32.715,39.551,64.941,42.480,46.387,0
1528310542.211,17.578,28.320,54.199,30.273,-3.418,0
1528310542.215,9.277,24.902,43.945,3.418,-63.965,0
1528310542.219,26.367,30.762,49.805,7.324,-33.203,0
1528310542.223,27.832,36.621,56.641,-5.859,64.453,0
1528310542.227,17.578,39.062,50.293,4.883,62.500,0
1528310542.231,23.438,34.668,49.805,15.625,4.883,0
1528310542.234,31.250,35.645,57.129,-15.137,8.301,0
1528310542.238,35.156,35.156,50.293,6.348,-5.371,0
1528310542.242,21.484,32.227,49.316,27.832,20.996,0
1528310542.246,-4.395,32.715,54.199,-16.113,-12.207,0
1528310542.250,10.254,41.016,58.105,-13.672,-57.617,0
1528310542.268,29.297,41.016,53.223,3.906,-3.418,0
1528310542.272,10.254,37.109,37.109,-20.996,36.133,0
1528310542.276,-0.977,38.574,32.715,-66.895,79.102,0
1528310542.280,5.859,37.598,34.668,-41.992,41.992,0
1528310542.284,11.230,44.434,47.363,9.277,27.832,0
1528310542.288,4.883,41.504,39.551,-28.320,24.902,0
1528310542.292,4.395,33.203,26.855,-9.766,35.156,0
1528310542.295,-4.883,34.180,40.527,-10.742,72.754,0
1528310542.299,-3.906,31.250,46.875,-8.789,37.598,0
1528310542.303,0.977,35.156,43.945,8.301,-9.277,0
1528310542.307,-9.277,41.504,48.828,-53.711,8.301,0
1528310542.311,-3.418,42.480,49.805,-21.484,-32.715,0
1528310542.309,3.906,51.758,45.410,13.184,-30.273,0
1528310542.313,5.859,50.781,49.316,-23.438,40.527,0
1528310542.317,-7.324,35.156,42.480,-14.648,33.203,0
1528310542.321,-17.090,32.715,35.645,-16.113,-1.953,0
1528310542.325,-18.066,30.273,40.527,-28.320,-19.043,0
1528310542.329,-11.719,30.273,39.551,-19.531,19.043,0
1528310542.333,-15.137,36.133,38.086,-3.418,42.480,0
1528310542.336,-21.973,36.621,43.457,3.418,40.039,0
1528310542.340,8.789,40.527,43.457,1.953,28.320,0
1528310542.344,20.996,41.504,43.945,15.137,14.160,0
1528310542.348,12.207,46.875,49.805,20.996,48.340,0
1528310542.352,7.324,49.316,47.852,1.465,50.293,0
1528310542.346,-6.348,35.645,40.527,-62.500,-3.418,0
1528310542.350,-1.465,36.621,43.945,-42.480,3.906,0
1528310542.354,11.230,41.992,37.109,29.297,32.715,0
1528310542.358,7.324,37.598,36.133,16.113,24.414,0
1528310542.362,5.371,41.016,52.734,2.930,20.996,0
1528310542.366,17.090,48.340,41.504,33.203,33.203,0
1528310542.370,20.020,37.109,27.832,29.785,34.668,0
1528310542.373,20.508,31.738,34.668,33.691,24.902,0
1528310542.377,22.949,35.645,27.344,26.855,42.969,0
1528310542.381,20.996,35.156,30.273,18.555,104.492,0
1528310542.385,29.785,38.574,41.504,34.180,69.824,0
1528310542.389,39.551,44.922,38.086,25.879,53.223,0
1528310542.409,34.180,44.434,37.598,18.066,62.988,0
1528310542.413,26.855,42.969,41.504,20.996,41.504,0
1528310542.417,30.273,40.039,41.992,27.344,35.645,0
1528310542.421,24.902,38.086,39.062,20.996,26.367,0
1528310542.425,22.461,36.133,34.668,20.020,28.320,0
1528310542.429,30.273,39.062,32.715,10.254,23.438,0
1528310542.433,32.715,37.598,36.621,22.461,42.969,0
1528310542.436,31.250,29.785,38.574,53.223,6.348,0
1528310542.440,31.250,41.504,44.434,14.648,-18.066,0
1528310542.444,17.578,46.875,42.480,13.672,-7.812,0
1528310542.448,9.277,34.180,39.062,43.457,-1.465,0
1528310542.452,23.926,35.156,40.527,35.645,58.594,0
1528310542.448,16.602,35.645,37.598,23.438,61.035,0
1528310542.452,7.324,31.738,36.133,18.555,-4.395,0
1528310542.456,17.090,33.203,42.969,34.668,1.953,0
1528310542.460,24.902,34.180,52.246,42.969,26.855,0
1528310542.464,21.973,33.203,45.898,22.461,6.836,0
1528310542.468,27.344,39.062,38.574,16.113,-9.766,0
1528310542.472,28.809,41.016,43.457,34.180,-12.207,0
1528310542.475,24.414,36.133,45.410,27.832,-31.738,0
1528310542.479,25.879,39.062,42.969,22.461,52.246,0
1528310542.483,5.371,37.109,37.109,16.113,97.168,0
1528310542.487,-2.441,32.715,35.645,9.277,71.777,0
1528310542.491,11.230,33.691,41.016,1.953,22.461,0
1528310542.488,13.184,38.086,39.551,5.371,7.812,0
1528310542.492,17.090,46.387,43.457,29.297,42.480,0
1528310542.496,15.625,41.992,40.527,25.879,56.641,0
1528310542.500,15.137,31.738,32.227,12.695,61.523,0
1528310542.504,20.508,33.691,39.062,13.672,77.637,0
1528310542.508,-0.488,33.203,36.621,9.766,58.594,0
1528310542.512,-2.930,39.551,37.598,21.973,-2.441,0
1528310542.515,-4.883,37.598,41.992,-30.273,35.156,0
1528310542.519,0.977,29.297,25.879,-37.598,95.215,0
1528310542.523,7.812,34.668,25.391,31.738,38.574,0
1528310542.527,-8.789,34.180,37.109,-0.488,-5.859,0
1528310542.531,-6.836,31.738,39.551,-7.812,20.996,0
1528310542.548,3.906,37.598,44.922,7.812,38.574,0
1528310542.552,0.977,37.109,47.852,2.930,26.855,0
1528310542.556,-2.441,36.621,43.945,-10.254,32.715,0
1528310542.560,-4.883,38.574,41.016,-11.230,-13.672,0
1528310542.564,-10.254,33.203,45.898,5.859,-1.953,0
1528310542.568,-0.488,34.180,46.387,20.508,43.457,0
1528310542.572,1.465,36.133,37.109,10.742,11.230,0
1528310542.575,2.441,41.016,43.457,-1.465,30.273,0
1528310542.579,9.277,44.922,48.340,0.977,10.254,0
1528310542.583,-2.441,30.273,38.574,10.742,32.227,0
1528310542.587,-2.930,29.785,37.109,6.836,74.707,0
1528310542.591,-7.324,36.133,31.738,4.395,27.344,0
1528310542.588,-13.672,35.156,36.133,4.395,-1.953,0
1528310542.592,0.488,33.203,49.316,18.555,9.277,0
1528310542.596,4.883,32.227,47.363,15.625,47.852,0
1528310542.600,2.441,33.203,43.457,-6.836,32.715,0
1528310542.604,-0.977,33.203,39.551,0.977,29.297,0
1528310542.608,10.742,39.062,44.434,-4.395,33.691,0
1528310542.612,12.207,39.551,54.199,-6.348,48.340,0
1528310542.615,-16.602,25.879,48.340,-5.371,58.594,0
1528310542.619,-20.508,23.438,48.828,-21.484,59.570,0
1528310542.623,-1.465,27.832,51.270,29.785,26.367,0
1528310542.627,17.578,31.738,51.270,40.039,28.320,0
1528310542.631,14.160,33.203,58.105,1.465,43.945,0
1528310542.628,2.441,33.691,60.547,-18.555,13.672,0
1528310542.632,6.836,35.156,56.641,-6.348,-38.574,0
1528310542.636,22.949,43.945,67.383,54.199,-28.809,0
1528310542.640,20.996,39.062,62.988,37.598,-23.926,0
1528310542.644,-9.277,25.391,52.246,4.395,6.836,0
1528310542.648,-9.766,32.715,50.293,23.438,37.109,0
1528310542.652,20.508,36.133,56.152,23.926,-4.883,0
1528310542.655,24.902,33.691,59.570,19.531,33.203,0
1528310542.659,3.906,37.598,52.734,7.324,54.688,0
1528310542.663,-2.441,36.621,56.641,2.441,32.227,0
1528310542.667,-3.418,33.691,64.453,5.859,23.926,0
1528310542.671,0.000,35.156,60.059,-25.391,52.246,0
1528310542.689,-0.977,36.133,49.805,-3.906,30.273,0
1528310542.693,6.348,37.109,49.805,6.348,-17.578,0
1528310542.697,17.090,38.086,57.129,0.000,14.160,0
1528310542.701,16.602,37.598,59.570,74.219,29.297,0
1528310542.705,15.625,43.457,55.176,16.602,2.930,0
1528310542.709,18.066,46.875,49.805,-17.090,36.133,0
1528310542.713,12.695,39.551,36.621,30.273,24.414,0
1528310542.716,20.508,38.574,43.457,20.020,11.230,0
1528310542.720,28.320,39.062,50.293,30.762,-14.160,0
1528310542.724,5.371,37.598,47.363,25.879,-6.836,0
1528310542.728,6.836,37.109,47.363,24.902,10.742,0
1528310542.732,27.832,37.598,45.898,48.828,20.508,0
1528310542.729,41.992,39.062,48.340,53.223,58.105,0
1528310542.733,22.949,38.574,41.992,30.762,24.414,0
1528310542.737,6.836,34.180,38.574,-3.418,6.348,0
1528310542.741,32.715,35.645,45.410,18.066,9.766,0
1528310542.745,37.109,34.668,48.828,60.059,-5.371,0
1528310542.749,14.160,31.250,50.293,48.828,-20.020,0
1528310542.753,18.066,31.738,49.316,38.574,7.324,0
1528310542.756,27.832,31.250,56.152,33.691,31.738,0
1528310542.760,30.762,30.762,55.176,28.320,41.992,0
1528310542.764,39.062,45.410,46.875,62.500,1.465,0
1528310542.768,46.387,50.781,48.340,50.781,-38.086,0
1528310542.772,47.852,39.062,42.969,26.367,-51.758,0
1528310542.789,42.969,39.062,43.457,51.270,-9.277,0
1528310542.793,39.551,39.062,46.875,46.387,63.477,0
1528310542.797,28.320,38.086,41.504,28.320,72.754,0
1528310542.801,22.461,38.086,46.875,30.762,0.977,0
1528310542.805,28.809,39.551,52.734,41.016,-10.742,0
1528310542.809,49.805,47.363,56.641,53.711,15.625,0
1528310542.813,50.781,48.340,49.805,37.598,3.418,0
1528310542.816,22.949,36.133,36.133,19.531,9.766,0
1528310542.820,29.785,34.668,44.434,39.062,32.227,0
1528310542.824,31.738,38.086,48.340,31.738,-7.324,0
1528310542.828,21.484,37.598,46.875,30.762,7.812,0
1528310542.832,22.461,37.109,45.898,41.016,38.086,0
1528310542.828,27.832,38.086,42.969,40.527,0.977,0
1528310542.832,35.156,33.203,47.363,46.875,17.578,0
1528310542.836,32.227,34.668,43.457,42.480,42.969,0
1528310542.840,20.996,39.551,31.738,-4.395,3.906,0
1528310542.844,22.461,36.621,31.250,-5.859,-23.438,0
1528310542.848,39.062,39.062,43.945,50.781,-5.371,0
1528310542.852,36.133,42.480,41.504,37.598,-11.719,0
1528310542.855,22.949,38.086,34.668,15.625,0.000,0
1528310542.859,29.297,38.574,40.039,27.832,-7.812,0
1528310542.863,36.133,40.039,43.945,39.062,-3.906,0
1528310542.867,24.414,39.062,46.875,37.598,56.641,0
1528310542.871,30.273,43.945,41.992,46.387,28.809,0
1528310542.868,31.250,41.016,36.621,41.016,1.953,0
1528310542.872,24.414,33.203,35.156,31.250,27.344,0
1528310542.876,27.832,31.250,39.062,42.480,-12.207,0
1528310542.880,8.301,28.809,33.691,31.250,-42.480,0
1528310542.884,0.977,33.203,27.832,18.066,11.230,0
1528310542.888,6.348,34.668,30.762,17.090,16.113,0
1528310542.892,17.578,36.621,37.109,20.996,-10.742,0
1528310542.895,18.555,36.621,38.086,14.160,43.945,0
1528310542.899,-1.953,32.227,27.344,21.484,12.207,0
1528310542.903,-10.742,30.273,22.949,23.438,-66.406,0
1528310542.907,9.277,26.855,33.203,19.043,-32.227,0
1528310542.911,25.879,34.668,41.016,9.766,-30.273,0
1528310542.929,3.906,34.180,27.344,19.043,-28.809,0
1528310542.933,-7.324,23.438,16.602,22.949,-13.184,0
1528310542.937,6.348,25.391,18.555,24.414,9.277,0
1528310542.941,21.973,30.762,19.531,36.621,-33.203,0
1528310542.945,4.883,33.691,13.672,16.602,-67.383,0
1528310542.949,-0.977,31.738,6.836,8.301,-70.312,0
1528310542.953,2.930,29.297,15.625,18.555,-32.715,0
1528310542.956,-1.953,25.391,26.855,27.832,24.902,0
1528310542.960,0.000,27.344,24.414,22.949,4.395,0
1528310542.964,-14.160,31.250,19.531,-1.465,-14.160,0
1528310542.968,-14.160,28.320,17.090,-7.324,-0.977,0
1528310542.972,7.812,34.180,25.391,5.371,18.066,0
1528310542.967,8.789,31.250,18.555,21.484,-17.090,0
1528310542.971,-12.207,26.367,9.277,8.789,-16.602,0
1528310542.975,-14.160,26.855,14.160,-7.324,-33.691,0
1528310542.979,9.277,26.367,24.414,7.324,-71.777,0
1528310542.983,8.789,25.879,33.203,16.602,24.414,0
1528310542.987,-22.461,22.949,21.973,9.277,12.695,0
1528310542.991,-19.043,21.973,14.160,4.395,-39.062,0
1528310542.994,1.953,26.367,26.367,-5.371,0.977,0
1528310542.998,8.301,37.109,38.574,40.039,11.719,0
1528310543.002,3.418,30.762,28.320,41.504,-17.090,0
1528310543.006,1.465,26.855,16.113,7.812,-29.785,0
1528310543.010,20.508,33.691,18.555,39.551,-39.062,0
1528310543.009,20.996,28.809,32.227,43.945,-42.480,0
1528310543.013,7.812,27.832,33.691,24.414,-19.043,0
1528310543.017,-4.395,29.297,20.020,7.324,-42.480,0
1528310543.021,-5.371,29.297,26.367,10.742,-62.988,0
1528310543.025,17.090,32.715,39.062,34.668,-26.855,0
1528310543.029,30.273,44.434,43.457,46.387,18.066,0
1528310543.033,9.277,45.410,35.156,8.789,38.574,0
1528310543.036,-3.418,35.645,23.438,-43.945,-25.879,0
1528310543.040,14.160,36.621,36.133,0.977,-64.941,0
1528310543.044,27.344,36.621,41.992,26.367,-9.766,0
1528310543.048,20.020,40.527,31.738,-3.906,24.902,0
1528310543.052,10.254,40.527,34.668,31.738,42.480,0
1528310543.049,11.230,36.133,41.992,47.852,9.766,0
1528310543.053,10.742,36.621,47.363,44.922,-15.137,0
1528310543.057,18.555,43.945,46.387,31.250,14.648,0
1528310543.061,8.789,38.086,30.762,-11.230,13.184,0
1528310543.065,10.254,31.250,28.809,-8.301,-22.949,0
1528310543.069,24.414,34.668,46.387,28.320,17.578,0
1528310543.073,14.160,35.645,48.828,20.996,37.109,0
1528310543.076,0.000,38.086,35.645,0.488,13.184,0
1528310543.080,1.953,40.527,31.250,-3.906,-18.555,0
1528310543.084,18.555,40.527,49.316,-12.695,7.324,0
1528310543.088,27.344,37.109,56.641,-9.277,33.691,0
1528310543.092,6.348,38.086,46.387,3.906,38.574,0
1528310543.108,4.395,47.363,41.016,-51.758,-17.578,0
1528310543.112,20.508,44.434,43.945,-23.438,-28.809,0
1528310543.116,17.578,36.133,41.992,31.250,36.133,0
1528310543.120,5.859,40.039,34.180,-5.859,-33.203,0
1528310543.124,-1.465,38.574,39.062,-14.648,-62.012,0
1528310543.128,3.418,37.109,50.781,18.066,-24.902,0
1528310543.132,15.625,41.016,51.758,19.043,-30.762,0
1528310543.135,13.672,49.316,56.152,0.977,-27.344,0
1528310543.139,7.812,45.410,44.922,-14.160,-51.758,0
1528310543.143,9.766,36.621,40.039,-6.836,-86.426,0
1528310543.147,25.879,37.598,50.293,15.625,-14.160,0
1528310543.151,28.320,38.574,43.457,-3.906,22.461,0
1528310543.148,8.789,36.621,36.133,-4.395,12.207,0
1528310543.152,12.695,40.039,40.527,0.000,30.762,0
1528310543.156,22.949,44.434,54.688,12.207,-0.977,0
1528310543.160,15.625,35.156,47.852,-35.645,-82.520,0
1528310543.164,6.836,27.832,33.691,-38.574,-31.250,0
1528310543.168,-5.371,28.809,31.250,1.953,-25.879,0
1528310543.172,4.395,31.738,39.062,-45.410,-44.434,0
1528310543.175,20.020,32.715,49.805,-7.812,14.648,0
1528310543.179,7.812,32.715,40.039,19.043,18.066,0
1528310543.183,-5.371,35.156,38.086,-33.691,27.832,0
1528310543.187,11.719,40.039,50.781,-8.301,41.992,0
1528310543.191,22.949,39.551,53.711,30.273,39.062,0
1528310543.188,20.996,40.039,51.758,16.602,54.199,0
1528310543.192,12.207,39.062,42.480,5.371,-7.812,0
1528310543.196,0.488,36.133,41.016,-5.371,-18.066,0
1528310543.200,21.973,38.086,58.105,5.371,62.012,0
1528310543.204,23.438,34.180,49.805,12.695,43.945,0
1528310543.208,-3.418,32.715,36.133,-9.277,-24.902,0
1528310543.212,5.859,35.156,46.875,0.977,-43.457,0
1528310543.215,9.766,36.133,50.293,9.766,53.711,0
1528310543.219,18.555,36.133,46.387,1.465,64.941,0
1528310543.223,3.906,39.551,50.293,-29.297,33.203,0
1528310543.227,-22.461,37.109,46.875,-19.531,24.902,0
1528310543.231,-1.953,30.273,47.363,19.531,-6.348,0
1528310543.269,18.066,30.762,54.688,26.367,46.387,0
1528310543.273,17.578,34.668,50.781,26.367,96.680,0
1528310543.277,9.277,35.645,39.551,8.789,76.660,0
1528310543.281,4.883,35.645,44.434,16.113,41.992,0
1528310543.285,18.066,39.551,60.059,42.480,11.719,0
1528310543.289,10.742,36.133,43.945,20.508,6.348,0
1528310543.293,-9.277,31.250,28.809,-12.695,25.879,0
1528310543.296,-3.418,33.203,37.598,-7.812,-2.441,0
1528310543.300,8.301,34.668,49.805,14.648,32.715,0
1528310543.304,3.418,34.180,51.270,19.043,44.434,0
1528310543.308,-2.930,36.621,37.109,-5.371,-32.715,0
1528310543.312,-2.930,38.086,38.086,-0.488,-23.926,0
1528310543.288,10.254,37.109,55.176,7.812,39.551,0
1528310543.292,18.555,36.133,57.129,14.160,65.918,0
1528310543.296,0.488,32.715,45.898,10.254,-2.930,0
1528310543.300,-8.301,33.203,40.039,-4.395,-17.090,0
1528310543.304,2.930,32.227,44.434,10.254,-18.066,0
1528310543.308,20.508,35.645,54.199,-20.508,8.301,0
1528310543.312,14.160,39.062,50.781,-16.113,73.242,0
1528310543.315,-6.348,30.273,34.668,28.809,53.223,0
1528310543.319,-3.418,27.832,36.621,21.484,16.113,0
1528310543.323,16.602,27.832,51.270,27.832,61.523,0
1528310543.327,17.578,30.273,49.805,11.719,43.457,0
1528310543.331,11.230,38.086,46.875,11.230,-17.090,0
1528310543.328,17.090,37.598,48.340,27.832,25.391,0
1528310543.332,22.461,37.109,50.781,33.203,61.523,0
1528310543.336,33.691,38.086,51.758,38.574,96.680,0
1528310543.340,28.809,37.598,45.410,21.973,105.469,0
1528310543.344,20.508,41.016,42.969,5.371,67.383,0
1528310543.348,36.621,43.457,44.922,18.066,11.719,0
1528310543.352,45.898,40.527,56.641,30.273,26.855,0
1528310543.355,29.785,39.551,44.922,25.879,22.949,0
1528310543.359,14.160,41.504,37.109,19.043,-6.348,0
1528310543.363,13.672,35.645,43.945,12.207,-12.695,0
1528310543.367,29.297,33.203,47.363,11.719,7.324,0
1528310543.371,22.461,29.785,48.340,17.090,24.902,0
1528310543.388,-1.953,30.762,36.621,7.812,31.738,0
1528310543.392,1.953,37.109,32.715,-4.395,19.043,0
1528310543.396,16.113,41.016,48.828,19.531,29.785,0
1528310543.400,15.137,40.527,52.246,17.578,52.246,0
1528310543.404,-8.301,32.227,31.738,-10.254,-2.930,0
1528310543.408,-5.371,31.250,28.320,7.812,-13.672,0
1528310543.412,22.949,33.691,43.945,11.230,-5.371,0
1528310543.415,26.367,39.551,52.246,-16.602,32.715,0
1528310543.419,0.488,39.551,46.875,5.859,93.750,0
1528310543.423,-7.812,36.621,44.434,21.484,17.090,0
1528310543.427,9.766,40.039,56.641,7.324,27.344,0
1528310543.431,17.578,39.062,54.199,-10.742,55.664,0
1528310543.428,26.855,38.086,41.016,-29.297,44.922,0
1528310543.432,10.254,32.715,39.551,-14.160,98.145,0
1528310543.436,4.395,27.832,46.875,32.715,61.523,0
1528310543.440,21.484,27.832,53.711,39.062,62.500,0
1528310543.444,17.090,31.250,48.828,18.066,48.828,0
1528310543.448,8.789,33.691,40.039,12.207,-16.113,0
1528310543.452,15.625,30.273,41.992,9.766,-39.062,0
1528310543.455,23.926,25.879,53.711,18.555,-20.020,0
1528310543.459,20.508,29.785,53.223,-5.371,27.832,0
1528310543.463,14.648,36.621,50.781,-15.625,40.039,0
1528310543.467,6.348,29.785,51.270,13.184,43.457,0
1528310543.471,18.066,25.391,46.387,9.766,23.438,0
1528310543.467,19.043,27.832,52.246,15.625,45.898,0
1528310543.471,2.930,27.344,45.898,20.020,34.180,0
1528310543.475,-0.488,27.344,38.574,7.812,-31.738,0
1528310543.479,5.859,29.297,48.828,-4.395,-2.441,0
1528310543.483,16.602,31.738,53.223,15.625,1.465,0
1528310543.487,13.184,36.133,45.410,20.996,17.090,0
1528310543.491,11.230,38.574,37.109,5.371,27.344,0
1528310543.494,11.719,37.598,38.086,-7.324,32.715,0
1528310543.498,17.090,37.598,51.270,-0.488,81.543,0
1528310543.502,28.320,46.875,61.035,22.461,83.496,0
1528310543.506,9.766,46.387,48.828,12.207,36.133,0
1528310543.510,-2.930,34.180,39.062,-8.789,5.859,0
1528310543.529,12.695,35.645,46.875,10.742,21.973,0
1528310543.533,23.438,39.551,51.758,24.902,38.574,0
1528310543.537,21.973,38.574,45.410,3.906,28.809,0
1528310543.541,12.695,39.062,42.480,1.465,10.254,0
1528310543.545,12.207,42.969,49.805,10.742,13.672,0
1528310543.549,20.508,40.527,53.223,10.254,54.688,0
1528310543.553,6.836,34.180,50.293,20.020,23.438,0
1528310543.556,-8.301,39.062,51.270,11.719,2.441,0
1528310543.560,15.137,43.945,62.500,14.160,43.457,0
1528310543.564,20.020,32.227,61.523,24.902,51.758,0
1528310543.568,2.930,26.855,37.598,11.230,32.715,0
1528310543.572,8.789,34.668,30.762,-0.977,3.418,0
1528310543.569,14.160,32.715,46.875,-2.441,0.977,0
1528310543.573,22.461,28.809,60.059,38.086,36.621,0
1528310543.577,23.438,35.645,56.641,17.090,56.152,0
1528310543.581,9.277,40.527,41.504,-9.766,3.418,0
1528310543.585,3.906,38.574,43.457,17.578,-19.531,0
1528310543.589,7.812,31.738,53.223,22.949,-9.766,0
1528310543.593,14.160,31.250,53.711,20.508,33.203,0
1528310543.596,2.930,31.738,52.246,-0.977,79.102,0
1528310543.600,-2.441,26.367,47.363,12.695,65.918,0
1528310543.604,18.066,30.273,50.781,35.156,24.902,0
1528310543.608,36.133,36.133,69.336,37.109,19.531,0
1528310543.612,28.320,30.762,56.152,14.160,44.434,0
1528310543.606,11.230,26.367,40.039,10.254,69.824,0
1528310543.610,14.160,28.320,47.852,27.344,84.473,0
1528310543.614,31.250,32.715,57.617,34.668,36.133,0
1528310543.618,23.438,30.273,58.594,36.133,5.371,0
1528310543.622,8.301,25.879,53.223,29.297,25.391,0
1528310543.626,20.508,29.785,52.734,21.484,40.527,0
1528310543.630,32.715,31.738,57.617,31.738,51.270,0
1528310543.633,28.320,33.203,55.176,28.809,60.547,0
1528310543.637,24.902,40.039,51.758,18.066,11.230,0
1528310543.641,19.531,37.598,50.293,-11.230,-9.277,0
1528310543.645,23.438,31.738,56.641,15.625,31.738,0
1528310543.649,34.180,37.109,54.688,38.086,2.930,0
1528310543.668,23.438,41.504,43.945,14.648,-20.508,0
1528310543.672,10.742,42.480,49.805,14.648,13.672,0
1528310543.676,21.973,45.898,63.965,18.066,72.754,0
1528310543.680,33.691,47.363,66.895,24.902,71.777,0
1528310543.684,17.578,41.016,50.293,12.207,32.227,0
1528310543.688,0.000,33.691,40.039,-3.418,30.273,0
1528310543.692,11.230,37.598,49.805,11.719,4.883,0
1528310543.695,26.855,40.527,58.594,24.902,31.250,0
1528310543.699,17.090,36.621,54.199,21.973,28.809,0
1528310543.703,-7.324,35.156,52.246,10.742,23.926,0
1528310543.707,-3.418,34.668,48.828,1.953,43.945,0
1528310543.711,11.719,33.203,57.129,10.742,19.043,0
1528310543.708,14.648,31.738,65.430,12.207,38.574,0
1528310543.712,5.371,40.039,58.594,3.906,46.387,0
1528310543.716,-5.371,40.039,55.176,6.836,23.926,0
1528310543.720,10.742,32.715,55.176,20.020,-7.324,0
1528310543.724,16.113,34.180,60.547,16.113,-10.254,0
1528310543.728,2.930,36.133,56.641,9.766,28.809,0
1528310543.732,-2.441,33.691,52.246,0.977,37.598,0
1528310543.735,6.348,31.738,60.059,-9.766,57.129,0
1528310543.739,16.113,34.180,62.500,28.809,43.945,0
1528310543.743,20.508,42.480,58.105,31.250,21.973,0
1528310543.747,12.207,40.039,53.711,-0.488,23.926,0
1528310543.751,8.301,32.227,56.641,-22.461,99.609,0
1528310543.747,22.949,36.621,63.965,3.906,78.125,0
1528310543.751,25.879,39.062,59.082,25.879,52.246,0
1528310543.755,17.578,40.039,50.293,13.184,68.359,0
1528310543.759,21.973,41.992,52.246,21.973,21.484,0
1528310543.763,29.297,41.504,61.035,25.879,14.648,0
1528310543.767,36.621,45.410,67.871,28.320,71.289,0
1528310543.771,25.879,47.363,55.664,19.043,85.449,0
1528310543.774,2.930,39.062,42.480,-3.906,60.059,1
1528310543.778,3.906,33.203,51.758,1.953,28.320,0
1528310543.782,11.719,27.832,55.176,9.766,38.574,0
1528310543.786,9.277,28.809,54.199,1.465,42.480,0
1528310543.790,2.441,31.250,50.781,0.977,64.941,0
1528310543.808,9.277,32.227,56.641,7.324,62.012,0
1528310543.812,20.996,36.621,69.336,22.461,93.750,0
1528310543.816,10.742,38.574,63.477,-9.766,127.441,0
1528310543.820,-11.230,36.621,49.316,-29.785,47.852,0
1528310543.824,-7.324,40.039,50.781,18.555,50.293,0
1528310543.828,17.578,42.969,62.500,24.414,126.953,0
1528310543.832,20.020,43.457,62.500,12.207,68.359,0
1528310543.835,4.883,43.945,53.223,-1.465,15.625,0
1528310543.839,3.906,41.992,48.828,-2.441,-20.996,0
1528310543.843,18.555,42.480,64.453,21.973,-22.949,0
1528310543.847,26.855,46.875,59.570,7.324,43.945,0
1528310543.851,12.695,41.992,51.758,-11.230,53.711,0
1528310543.849,-1.953,34.668,59.082,2.441,36.133,0
1528310543.853,7.812,33.691,63.477,12.207,21.484,0
1528310543.857,30.273,38.086,73.730,29.785,15.137,0
1528310543.861,16.602,36.621,69.336,16.113,29.297,0
1528310543.865,-1.465,30.762,54.688,-8.789,21.484,0
1528310543.869,10.742,34.180,55.664,11.719,-20.508,0
1528310543.873,12.695,35.645,66.406,-6.348,-8.301,0
1528310543.876,10.254,36.133,64.453,-13.184,48.340,0
1528310543.880,1.953,39.551,55.176,27.832,53.223,0
1528310543.884,-4.883,34.668,55.664,14.648,16.602,0
1528310543.888,12.695,33.203,72.266,17.578,32.227,0
1528310543.892,20.996,41.992,74.707,30.273,48.828,0
1528310543.909,6.348,40.039,62.012,16.602,0.488,0
1528310543.913,1.465,36.621,53.711,7.812,-16.113,0
1528310543.917,9.277,38.086,62.012,10.742,25.879,0
1528310543.921,17.090,33.691,67.383,23.438,84.473,0
1528310543.925,16.602,38.086,60.059,28.809,100.098,0
1528310543.929,14.648,42.480,56.641,19.531,83.984,0
1528310543.933,15.625,33.691,54.199,32.227,31.250,0
1528310543.936,23.926,32.227,60.547,40.039,14.160,0
1528310543.940,19.043,33.691,62.012,21.973,76.660,0
1528310543.944,9.277,33.203,51.758,12.695,50.781,0
1528310543.948,17.578,35.156,58.105,20.020,3.418,0
1528310543.952,27.344,32.227,66.406,22.461,46.875,0
1528310543.949,22.461,28.320,59.082,24.414,27.344,0
1528310543.953,10.254,30.273,55.176,8.301,17.090,0
1528310543.957,15.137,35.645,57.129,14.648,33.691,0
1528310543.961,34.668,38.086,70.801,44.922,30.273,0
1528310543.965,31.738,32.227,67.871,44.434,60.547,0
1528310543.969,11.719,32.227,51.758,23.926,34.668,0
1528310543.973,8.301,33.691,55.664,19.043,15.137,0
1528310543.976,25.391,30.273,62.012,33.203,30.762,0
1528310543.980,37.109,36.133,68.359,39.062,18.555,0
1528310543.984,36.133,40.039,62.988,29.297,23.438,0
1528310543.988,31.738,43.945,54.688,30.762,-16.602,0
1528310543.992,28.320,42.480,67.871,31.738,45.898,0
1528310543.989,26.367,34.180,71.777,32.227,91.797,0
1528310543.993,11.230,31.250,61.523,28.809,50.293,0
1528310543.997,3.418,32.715,57.617,22.949,12.207,0
1528310544.001,19.043,37.598,61.523,15.137,36.621,0
1528310544.005,23.438,28.320,60.547,6.836,45.898,0
1528310544.009,17.090,26.855,54.199,40.039,0.000,0
1528310544.013,12.207,32.715,50.293,36.133,-3.906,0
1528310544.016,11.719,33.691,60.547,26.855,-0.977,0
1528310544.020,22.461,36.621,63.965,39.551,-1.953,0
1528310544.024,25.391,37.598,63.477,36.133,34.668,0
1528310544.028,12.207,40.039,66.895,28.320,86.914,0
1528310544.032,2.930,37.598,58.594,13.184,96.191,0
1528310544.068,14.160,34.180,56.641,16.113,82.520,0
1528310544.072,26.367,39.551,55.664,28.320,96.680,0
1528310544.076,24.902,41.504,54.199,13.672,88.379,0
1528310544.080,20.508,43.457,57.617,10.742,75.195,0
1528310544.084,15.625,38.574,55.176,8.789,47.852,0
1528310544.088,12.695,33.203,55.176,12.207,-13.184,0
1528310544.092,6.348,34.180,51.270,12.695,-2.441,0
1528310544.095,-1.953,36.133,47.363,-6.348,-10.742,0
1528310544.099,8.789,36.621,57.617,-5.371,6.836,0
1528310544.103,25.391,38.086,65.918,19.043,62.500,0
1528310544.107,17.578,36.133,65.430,19.531,36.621,0
1528310544.111,12.207,33.691,57.617,12.695,30.762,0
1528310544.088,18.066,38.086,54.199,15.137,32.715,0
1528310544.092,24.414,40.039,58.594,13.184,66.406,0
1528310544.096,18.555,40.039,56.641,12.695,107.910,0
1528310544.100,-0.977,38.574,52.246,3.418,108.887,0
1528310544.104,-4.395,42.969,53.711,4.395,107.910,0
1528310544.108,12.207,45.410,53.223,12.207,53.711,0
1528310544.112,0.977,35.645,50.293,5.859,40.039,0
1528310544.115,-8.301,36.133,50.293,-1.953,104.980,0
1528310544.119,1.953,41.016,49.805,-5.859,109.863,0
1528310544.123,3.418,42.480,47.852,1.953,51.758,0
1528310544.127,15.137,41.504,51.758,13.672,55.664,0
1528310544.131,11.719,37.109,51.758,4.883,-13.184,0
1528310544.128,2.441,37.109,48.828,0.000,-26.367,0
1528310544.132,16.113,45.410,59.082,12.695,36.621,0
1528310544.136,20.508,43.457,56.641,18.066,25.391,0
1528310544.140,11.230,37.109,46.387,13.184,56.152,0
1528310544.144,7.812,37.109,48.828,10.742,82.031,0
1528310544.148,8.789,39.062,52.734,16.113,70.312,0
1528310544.152,9.766,37.598,58.105,20.508,100.586,0
1528310544.155,11.230,34.668,56.152,16.113,87.891,0
1528310544.159,10.742,38.086,44.922,12.207,41.504,0
1528310544.163,17.090,48.340,52.246,23.438,28.320,0
1528310544.167,24.414,47.852,65.430,38.574,7.324,0
1528310544.171,21.484,36.621,57.129,27.344,0.977,0
1528310544.189,13.672,36.621,50.293,19.531,20.996,0
1528310544.193,3.906,37.598,50.781,17.578,17.090,0
1528310544.197,8.301,38.086,55.176,11.230,8.301,0
1528310544.201,17.578,37.598,59.570,7.812,50.781,0
1528310544.205,11.230,34.668,60.547,19.531,105.469,0
1528310544.209,9.277,38.086,57.617,31.738,87.402,0
1528310544.213,14.160,40.039,51.758,23.926,46.387,0
1528310544.216,24.902,38.086,55.664,20.020,47.363,0
1528310544.220,32.715,44.922,63.477,29.297,73.730,0
1528310544.224,15.137,39.551,52.734,26.855,60.547,0
1528310544.228,1.953,29.297,50.781,11.719,30.762,0
1528310544.232,11.719,33.203,58.594,15.137,29.785,0
1528310544.227,11.719,35.156,57.129,18.555,29.297,0
1528310544.231,10.254,38.086,55.664,8.789,45.410,0
1528310544.235,17.578,36.133,59.082,13.672,69.824,0
1528310544.239,17.578,34.180,62.500,23.438,39.062,0
1528310544.243,15.625,32.227,57.617,22.461,37.109,0
1528310544.247,14.160,36.133,53.223,27.344,22.949,0
1528310544.251,9.277,39.062,59.570,23.926,15.625,0
1528310544.254,5.371,27.344,54.199,11.230,69.336,0
1528310544.258,17.090,27.344,50.781,15.137,56.152,0
1528310544.262,18.066,32.715,45.898,14.648,20.508,0
1528310544.266,4.395,33.203,40.039,2.441,10.254,0
1528310544.270,0.000,25.879,57.129,8.301,28.809,0
1528310544.289,15.137,30.273,73.242,28.809,81.543,0
1528310544.293,26.855,39.062,71.289,37.109,57.129,0
1528310544.297,12.695,35.156,54.199,22.461,-12.695,0
1528310544.301,7.812,35.156,49.805,10.742,-18.066,0
1528310544.305,7.812,36.621,56.641,20.020,-19.043,0
1528310544.309,8.789,36.133,53.223,22.949,34.668,1
1528310544.313,4.395,34.668,51.270,19.043,90.820,0
1528310544.316,-0.977,36.133,53.223,16.602,62.500,0
1528310544.320,9.277,36.133,51.270,14.160,40.527,0
1528310544.324,12.695,35.645,48.340,16.113,3.906,0
1528310544.328,6.836,38.086,51.270,10.742,60.059,0
1528310544.332,0.000,38.086,52.734,10.254,104.004,0
1528310544.329,2.441,36.621,47.852,14.648,35.156,0
1528310544.333,22.461,41.992,52.246,33.203,48.340,0
1528310544.337,19.043,40.527,52.734,31.250,56.152,0
1528310544.341,-1.953,27.832,41.016,10.254,53.711,0
1528310544.345,4.395,29.297,40.527,16.602,51.758,0
1528310544.349,14.648,31.738,42.969,16.602,26.367,0
1528310544.353,11.230,32.715,48.828,17.578,46.875,0
1528310544.356,4.395,34.668,48.340,14.648,75.195,0
1528310544.360,3.906,34.180,45.410,10.742,7.812,0
1528310544.364,23.438,37.109,50.781,27.344,-20.020,0
1528310544.368,31.738,37.598,56.641,28.320,0.488,0
1528310544.372,18.066,41.504,52.734,17.578,41.504,0
1528310544.369,9.277,37.598,44.922,19.043,36.621,0
1528310544.373,8.301,32.715,47.852,13.672,17.578,0
1528310544.377,14.648,35.156,46.387,13.184,39.062,0
1528310544.381,17.090,37.598,42.480,15.137,36.133,0
1528310544.385,8.301,38.086,40.039,9.766,19.531,0
1528310544.389,8.789,35.645,44.922,16.602,-16.113,0
1528310544.393,16.113,36.621,50.293,21.973,23.438,0
1528310544.396,16.602,39.551,47.363,16.113,41.992,0
1528310544.400,16.113,45.898,54.199,15.625,15.625,0
1528310544.404,17.090,42.969,47.852,20.020,4.395,0
1528310544.408,16.602,34.668,39.551,15.137,13.184,0
1528310544.412,15.137,36.621,50.781,20.996,35.156,0
1528310544.409,5.859,38.574,50.293,20.508,46.387,0
1528310544.413,7.324,41.992,49.805,16.113,20.508,0
1528310544.417,19.531,41.992,47.363,23.926,-3.418,0
1528310544.421,18.555,35.156,50.781,28.809,34.180,0
1528310544.425,22.461,42.480,59.082,39.551,49.805,0
1528310544.429,26.367,50.293,52.246,39.062,25.879,0
1528310544.433,19.043,36.621,48.340,20.508,-12.695,0
1528310544.436,24.414,32.227,49.316,20.996,49.316,0
1528310544.440,14.648,32.227,45.410,20.020,124.512,0
1528310544.444,10.254,37.109,52.246,20.020,38.574,0
1528310544.448,17.578,39.062,51.270,18.555,-33.203,0
1528310544.452,20.020,34.668,47.852,14.648,12.207,0
1528310544.468,18.555,35.645,47.363,19.043,35.156,0
1528310544.472,6.348,34.180,44.434,17.090,23.926,0
1528310544.476,8.301,31.250,48.828,23.438,17.090,0
1528310544.480,23.926,38.574,55.664,31.738,-1.953,0
1528310544.484,26.855,40.039,52.246,27.344,29.785,0
1528310544.488,8.789,30.762,37.598,14.648,18.066,0
1528310544.492,4.395,31.738,35.156,13.672,-2.930,0
1528310544.495,16.113,32.715,46.387,23.926,57.617,0
1528310544.499,22.461,32.227,55.176,24.414,77.637,0
1528310544.503,12.207,34.668,45.410,17.090,28.320,0
1528310544.507,4.883,40.039,46.387,20.996,-7.812,0
1528310544.511,15.625,44.434,55.664,32.227,35.645,0
1528310544.508,17.090,39.062,50.293,28.809,35.645,0
1528310544.512,11.230,32.227,42.480,17.090,22.461,0
1528310544.516,10.254,36.621,46.387,14.160,53.223,0
1528310544.520,10.742,38.086,51.758,26.855,51.758,0
1528310544.524,8.789,29.785,42.480,32.227,23.438,0
1528310544.528,11.230,30.273,38.086,19.531,-7.324,0
1528310544.532,6.348,31.250,37.598,9.766,-37.598,0
1528310544.535,8.789,40.039,44.922,21.484,9.766,0
1528310544.539,23.926,45.410,53.711,24.902,76.660,0
1528310544.543,27.832,39.062,43.457,20.020,84.473,0
1528310544.547,13.184,41.016,39.551,19.043,85.938,0
1528310544.551,4.883,37.109,46.387,18.555,82.031,0
1528310544.549,13.184,35.156,45.410,18.555,53.223,0
1528310544.553,22.461,39.062,40.527,19.043,52.246,0
1528310544.557,13.672,34.180,38.574,14.160,40.527,0
1528310544.561,-2.441,32.227,35.156,5.371,6.348,0
1528310544.565,-0.977,32.227,38.574,11.719,28.809,0
1528310544.569,14.648,34.180,41.992,23.926,98.145,0
1528310544.573,18.066,38.086,42.480,29.785,67.871,0
1528310544.576,14.160,42.480,41.504,26.855,33.203,0
1528310544.580,18.555,44.922,43.945,23.438,61.523,0
1528310544.584,16.602,40.039,48.340,19.531,67.383,0
1528310544.588,17.578,34.668,43.945,16.113,47.363,0
1528310544.592,7.324,30.273,41.016,15.137,6.348,0
1528310544.607,1.465,29.785,40.527,17.090,54.199,0
1528310544.611,17.090,33.203,40.527,20.996,104.980,0
1528310544.615,32.227,37.109,46.875,31.738,39.062,0
1528310544.619,15.137,32.715,48.828,24.902,14.648,0
1528310544.623,-0.488,27.344,42.969,10.254,50.293,0
1528310544.627,10.254,27.344,43.457,20.508,-19.043,0
1528310544.631,29.297,29.297,42.969,26.367,-27.344,0
1528310544.634,20.996,33.203,41.504,16.602,33.691,0
1528310544.638,8.789,36.133,46.387,16.602,59.570,0
1528310544.642,20.020,36.133,50.293,21.484,49.805,0
1528310544.646,34.668,36.621,50.781,28.320,41.016,0
1528310544.650,26.367,35.645,47.363,29.785,42.480,0
1528310544.649,8.301,31.738,45.898,26.367,50.293,0
1528310544.653,17.090,34.180,50.781,32.715,82.031,0
1528310544.657,30.273,35.156,44.922,29.785,46.387,0
1528310544.661,31.738,39.062,46.875,32.227,40.039,0
1528310544.665,14.160,40.039,50.781,28.320,66.895,0
1528310544.669,4.395,37.109,43.457,12.207,33.203,0
1528310544.673,13.672,36.621,43.457,18.066,-4.395,0
1528310544.676,16.113,35.156,47.363,23.438,29.785,0
1528310544.680,10.254,34.180,46.875,21.973,-4.883,0
1528310544.684,12.207,32.715,45.898,18.555,-12.695,0
1528310544.688,20.020,34.668,47.363,11.719,29.297,0
1528310544.692,30.273,37.109,51.270,16.602,53.223,0
1528310544.689,29.785,44.434,50.781,27.832,45.410,0
1528310544.693,13.184,41.504,52.246,21.973,7.324,0
1528310544.697,20.996,38.086,48.340,20.020,19.531,0
1528310544.701,42.969,43.945,45.410,20.996,103.516,0
1528310544.705,33.691,41.504,51.270,27.832,78.613,0
1528310544.709,16.113,36.133,44.922,28.809,-9.766,0
1528310544.713,22.461,41.504,57.129,33.691,2.930,0
1528310544.716,35.645,42.969,62.012,37.598,72.266,0
1528310544.720,24.414,33.691,41.992,18.066,83.008,0
1528310544.724,7.324,32.715,44.922,11.719,43.945,0
1528310544.728,8.789,32.227,49.805,16.602,36.621,0
1528310544.732,19.531,33.691,51.758,20.996,40.527,0
1528310544.749,21.973,33.691,52.246,28.320,83.008,0
1528310544.753,18.066,34.180,47.852,24.902,68.848,0
1528310544.757,11.719,30.762,46.387,12.695,-3.906,0
1528310544.761,13.184,31.250,51.270,13.672,-15.625,0
1528310544.765,18.066,34.180,55.176,22.949,-1.953,0
1528310544.769,6.836,28.809,40.039,12.695,-32.715,0
1528310544.773,-6.348,26.367,38.086,2.930,9.277,0
1528310544.776,-1.953,29.297,50.781,9.766,30.762,0
1528310544.780,4.395,27.344,47.363,9.766,40.527,0
1528310544.784,3.906,26.367,42.969,10.254,52.734,0
1528310544.788,0.977,30.273,42.969,12.695,-6.348,0
1528310544.792,-3.418,30.273,47.363,14.160,-25.879,0
1528310544.789,13.672,36.621,54.688,21.484,25.879,0
1528310544.793,24.902,41.016,52.734,28.809,18.555,0
1528310544.797,7.324,37.109,52.246,26.367,45.898,0
1528310544.801,2.930,39.062,49.316,15.625,27.344,0
1528310544.805,28.809,50.781,52.246,26.367,-29.297,0
1528310544.809,37.598,49.805,55.176,32.227,35.156,0
1528310544.813,18.066,38.574,43.945,19.531,47.363,0
1528310544.816,10.254,34.668,46.875,20.508,15.137,0
1528310544.820,16.602,34.668,57.129,28.809,21.484,0
1528310544.824,27.832,39.062,52.734,25.391,-19.043,0
1528310544.828,22.949,39.551,51.758,22.949,-25.879,0
1528310544.832,16.602,38.086,55.176,19.043,47.852,0
1528310544.828,15.625,39.551,50.781,10.742,25.391,0
1528310544.832,25.391,45.410,62.012,32.715,45.410,0
1528310544.836,24.902,42.480,61.035,42.969,63.477,0
1528310544.840,6.836,35.645,46.387,25.391,-4.395,0
1528310544.844,9.766,41.016,46.875,15.625,18.555,0
1528310544.848,26.367,44.922,53.711,36.621,51.270,0
1528310544.852,32.715,44.434,57.617,42.969,39.062,0
1528310544.855,19.043,39.062,45.410,19.531,-10.742,2
1528310544.859,9.277,39.062,43.945,20.996,-5.859,0
1528310544.863,9.277,42.969,55.176,26.855,62.012,0
1528310544.867,28.809,48.828,60.547,34.668,64.941,0
1528310544.871,32.715,49.316,54.688,35.156,16.113,0
1528310544.887,15.625,41.992,43.457,23.926,12.695,0
1528310544.891,13.672,40.039,53.223,26.367,36.621,0
1528310544.895,21.484,42.480,61.523,33.203,70.801,0
1528310544.899,21.973,44.434,46.387,20.508,11.719,0
1528310544.903,22.461,46.875,49.316,20.020,-30.762,0
1528310544.907,26.367,48.340,51.758,27.832,16.113,0
1528310544.911,20.508,37.109,46.387,24.902,-7.812,0
1528310544.914,21.484,33.691,55.176,27.832,44.922,0
1528310544.918,10.742,39.551,47.852,20.020,37.598,0
1528310544.922,-2.441,39.551,50.781,17.578,-1.465,0
1528310544.926,7.812,40.039,53.223,28.320,81.543,0
1528310544.930,21.973,42.480,45.898,40.527,51.270,0
1528310544.929,18.555,39.551,42.969,29.785,49.316,0
1528310544.933,24.414,48.340,51.758,27.344,92.773,0
1528310544.937,25.391,45.410,57.129,34.180,41.992,0
1528310544.941,14.160,33.203,51.270,29.297,57.617,0
1528310544.945,14.160,38.086,46.387,19.043,68.359,0
1528310544.949,22.949,44.922,51.270,24.902,46.387,0
1528310544.953,21.973,38.086,55.176,33.691,12.695,0
1528310544.956,27.832,30.762,49.805,33.691,-55.664,0
1528310544.960,30.273,37.109,49.316,38.086,8.301,0
1528310544.964,21.484,37.109,44.922,27.344,86.914,0
1528310544.968,22.461,36.621,49.805,26.855,82.520,0
1528310544.972,27.832,40.527,54.688,36.621,78.613,0
1528310544.969,30.273,39.062,50.781,41.016,73.730,0
1528310544.973,15.137,36.621,42.480,30.762,22.461,0
1528310544.977,15.137,42.480,50.781,30.762,27.832,0
1528310544.981,23.926,41.992,57.617,39.062,28.809,0
1528310544.985,18.066,35.156,49.805,34.668,-5.371,0
1528310544.989,17.578,41.504,51.270,28.320,30.273,0
1528310544.993,10.254,38.086,48.828,22.949,41.504,0
1528310544.996,0.977,31.250,39.551,14.648,-7.324,0
1528310545.000,15.625,40.039,49.316,19.043,41.016,0
1528310545.004,15.137,38.574,53.223,23.438,53.711,0
1528310545.008,0.000,32.715,44.922,16.602,31.250,0
1528310545.012,7.812,35.645,43.457,17.090,-1.953,0
1528310545.028,27.832,42.480,48.828,27.344,-4.395,0
1528310545.032,27.344,45.410,53.711,26.855,29.297,0
1528310545.036,6.348,36.621,45.898,12.695,33.203,0
1528310545.040,0.977,30.762,43.457,4.395,77.637,0
1528310545.044,19.043,32.715,46.387,15.625,101.562,0
1528310545.048,29.297,37.109,38.086,22.461,79.102,0
1528310545.052,18.555,38.086,37.109,13.672,64.941,0
1528310545.055,20.996,43.945,48.340,20.996,68.359,0
1528310545.059,27.832,41.504,52.734,28.809,73.242,0
1528310545.063,24.902,33.203,49.805,25.391,43.457,0
1528310545.067,15.137,37.109,44.434,23.926,58.594,0
1528310545.071,10.742,43.945,44.434,18.066,35.645,0
1528310545.068,16.602,44.434,45.410,13.184,-4.395,0
1528310545.072,3.418,36.133,41.992,15.625,29.297,0
1528310545.076,-3.418,30.273,42.480,13.184,76.172,0
1528310545.080,-7.324,33.203,40.039,5.859,69.336,0
1528310545.084,-8.301,33.691,41.016,5.859,63.477,0
1528310545.088,18.555,38.574,46.387,21.484,21.973,0
1528310545.092,21.484,41.504,49.805,25.879,13.672,0
1528310545.095,2.441,30.273,46.875,11.230,15.625,0
1528310545.099,6.348,36.133,47.363,13.184,13.184,0
1528310545.103,23.438,40.527,55.176,25.391,84.961,0
1528310545.107,21.484,31.250,54.199,21.973,77.148,0
1528310545.111,-0.488,32.715,48.828,13.184,9.277,0
1528310545.107,-0.488,37.109,49.805,14.160,-5.859,0
1528310545.111,12.207,37.598,46.875,21.973,26.855,0
1528310545.115,19.043,39.551,43.457,26.855,47.363,0
1528310545.119,15.137,41.016,40.527,13.672,15.137,0
1528310545.123,5.859,43.945,40.039,6.348,-3.418,0
1528310545.127,9.277,39.551,49.805,22.461,38.574,0
1528310545.131,16.113,35.156,53.711,38.086,62.500,0
1528310545.134,16.602,41.992,45.410,30.273,6.836,0
1528310545.138,13.672,49.316,53.711,19.043,14.160,0
1528310545.142,7.324,39.062,54.688,10.254,26.367,0
1528310545.146,12.207,33.203,48.828,10.742,42.480,0
1528310545.150,10.742,39.062,52.246,22.461,97.168,0
1528310545.169,10.254,41.992,46.875,17.090,91.309,0
1528310545.173,21.973,47.852,56.641,20.508,52.246,0
1528310545.177,33.203,43.945,60.059,30.762,-3.418,0
1528310545.181,27.344,35.645,54.688,29.785,16.113,0
1528310545.185,11.230,36.621,49.316,20.508,28.809,0
1528310545.189,3.418,36.133,44.922,15.625,25.391,0
1528310545.193,19.531,40.527,61.035,27.832,35.645,0
1528310545.196,26.367,40.527,66.406,32.715,42.969,0
1528310545.200,11.719,38.574,53.711,19.531,88.867,0
1528310545.204,7.812,39.062,46.387,10.742,52.246,0
1528310545.208,10.254,34.668,48.828,13.184,35.156,0
1528310545.212,15.625,38.086,55.664,20.996,60.547,0
1528310545.210,10.254,36.133,54.688,21.484,35.156,0
1528310545.214,8.301,36.133,47.363,11.719,56.152,0
1528310545.218,12.695,38.086,47.363,9.277,84.473,0
1528310545.222,15.137,33.691,49.316,19.531,83.008,0
1528310545.226,21.484,37.109,50.781,19.531,53.223,0
1528310545.230,11.719,36.621,49.316,5.371,40.527,0
1528310545.234,11.719,39.062,49.805,15.625,52.246,0
1528310545.237,14.648,34.180,49.805,35.645,64.941,0
1528310545.241,5.371,25.391,38.086,30.273,78.613,0
1528310545.245,-2.441,29.297,35.645,14.160,48.340,0
1528310545.249,-4.395,31.738,43.457,5.859,17.090,0
1528310545.253,7.812,33.691,52.246,16.113,66.895,0
1528310545.248,9.277,31.250,54.199,26.367,47.363,0
1528310545.252,0.977,29.297,50.781,13.184,41.016,0
1528310545.256,-9.766,24.414,41.016,-3.418,41.992,0
1528310545.260,-9.766,27.344,47.852,9.277,-13.184,0
1528310545.264,-6.836,32.227,51.758,19.531,-2.441,0
1528310545.268,1.465,35.645,47.852,21.973,41.504,0
1528310545.272,5.859,39.551,41.016,16.602,39.062,0
1528310545.275,3.906,37.109,39.551,10.742,-2.930,0
1528310545.279,9.766,34.668,51.270,14.160,18.555,0
1528310545.283,13.672,33.203,54.688,23.926,80.078,0
1528310545.287,11.230,32.227,45.410,19.531,52.246,0
1528310545.291,3.418,32.227,41.016,13.184,24.414,0
1528310545.309,15.625,42.969,55.176,35.645,20.996,0
1528310545.313,26.367,45.410,58.594,34.668,76.172,0
1528310545.317,13.672,36.621,47.852,20.508,49.805,0
1528310545.321,11.230,39.062,55.176,26.367,6.348,0
1528310545.325,9.766,35.156,58.594,27.832,68.848,0
1528310545.329,13.672,34.668,47.363,31.250,19.531,0
1528310545.333,20.020,38.574,43.945,35.156,-9.766,0
1528310545.336,10.742,38.574,45.898,18.555,4.395,0
1528310545.340,7.324,39.062,49.316,16.602,-21.973,0
1528310545.344,20.996,39.551,55.176,33.691,43.945,0
1528310545.348,21.973,41.016,48.828,33.691,32.715,0
1528310545.352,15.625,41.992,44.434,23.438,-39.062,0
1528310545.349,22.949,49.316,59.570,26.367,-18.066,0
1528310545.353,28.320,50.781,62.500,31.250,60.547,0
1528310545.357,20.020,41.504,51.758,27.344,83.496,0
1528310545.361,16.602,49.805,54.199,28.320,44.434,0
1528310545.365,12.695,46.387,55.176,23.926,-0.977,0
1528310545.369,7.324,36.621,49.316,23.438,-24.902,0
1528310545.373,18.555,39.062,55.176,29.297,77.148,0
1528310545.376,26.367,37.109,60.547,29.785,119.141,0
1528310545.380,15.625,38.574,52.246,27.832,14.160,0
1528310545.384,15.625,41.504,54.688,29.297,-14.160,0
1528310545.388,30.762,41.016,62.988,32.715,30.273,0
1528310545.392,38.086,43.457,63.965,38.086,64.453,0
1528310545.408,34.180,50.781,67.383,36.621,67.383,0
1528310545.412,28.809,45.410,52.734,25.391,50.293,0
1528310545.416,32.227,36.621,49.316,29.297,64.453,0
1528310545.420,28.320,37.598,58.105,31.738,107.910,0
1528310545.424,16.113,40.039,50.781,18.555,61.523,0
1528310545.428,10.254,39.551,50.781,13.672,69.336,0
1528310545.432,31.738,45.410,60.059,31.250,106.445,0
1528310545.435,29.785,39.062,59.082,30.762,109.863,1
1528310545.439,13.184,32.715,52.246,18.555,54.199,0
1528310545.443,19.531,45.410,53.223,26.855,16.113,0
1528310545.447,23.438,41.504,55.176,32.227,59.082,0
1528310545.451,24.414,35.156,49.316,34.180,35.156,0
1528310545.448,27.832,42.969,47.852,28.320,26.855,0
1528310545.452,31.250,44.922,54.199,28.320,-8.789,0
1528310545.456,23.926,45.410,63.477,36.621,24.902,0
1528310545.460,34.180,46.875,64.453,41.504,63.477,0
1528310545.464,40.039,45.410,52.246,45.410,14.648,0
1528310545.468,21.484,44.922,49.805,37.109,15.625,0
1528310545.472,16.113,43.945,60.547,31.250,37.598,0
1528310545.475,22.461,41.016,62.012,37.109,46.875,0
1528310545.479,23.926,39.551,56.641,28.320,56.641,0
1528310545.483,25.391,46.875,57.129,20.996,34.668,0
1528310545.487,16.113,45.898,52.246,18.555,-23.926,0
1528310545.491,3.418,36.621,50.293,9.766,8.301,0
1528310545.489,14.160,39.062,60.059,16.113,30.273,0
1528310545.493,13.672,41.016,55.176,15.137,53.223,0
1528310545.497,2.930,40.527,47.852,9.766,44.434,0
1528310545.501,8.789,41.504,54.688,15.137,39.062,0
1528310545.505,24.902,43.457,61.523,24.414,62.500,0
1528310545.509,18.066,38.086,51.758,17.090,-8.301,0
1528310545.513,6.836,41.016,58.105,9.766,46.875,0
1528310545.516,13.184,44.434,60.547,17.578,26.855,0
1528310545.520,25.879,38.086,44.434,22.461,-50.781,0
1528310545.524,20.020,37.109,45.410,23.438,4.883,0
1528310545.528,9.277,40.039,52.246,20.996,27.344,0
1528310545.532,18.555,47.852,61.035,26.855,11.719,0
1528310545.547,19.043,47.852,64.453,32.715,18.066,0
1528310545.551,18.066,42.969,57.129,30.273,44.922,0
1528310545.555,14.160,44.434,57.617,22.949,72.754,0
1528310545.559,1.953,41.992,57.129,18.066,41.016,0
1528310545.563,11.230,41.016,56.641,24.414,23.438,0
1528310545.567,22.461,41.504,55.664,29.785,51.270,0
1528310545.571,20.020,43.945,45.410,26.855,6.836,0
1528310545.574,16.602,43.457,45.898,20.508,-33.203,0
1528310545.578,20.508,44.922,59.570,27.344,23.926,0
1528310545.582,31.738,54.688,69.824,41.504,66.895,0
1528310545.586,24.902,50.293,60.547,30.762,68.848,0
1528310545.590,20.996,38.574,45.898,17.090,70.801,0
1528310545.589,16.602,37.109,56.641,17.578,32.227,0
1528310545.593,15.625,35.645,62.012,24.414,-8.789,0
1528310545.597,24.902,39.551,63.965,30.273,6.348,0
1528310545.601,17.578,39.062,59.082,18.555,0.488,0
1528310545.605,9.277,34.668,47.852,7.812,-13.184,0
1528310545.609,22.949,40.039,55.664,22.461,32.715,0
1528310545.613,27.832,37.109,58.105,26.855,67.871,0
1528310545.616,13.672,38.574,55.176,12.695,45.898,0
1528310545.620,0.977,34.180,51.758,0.977,23.438,0
1528310545.624,6.836,29.297,47.852,0.977,83.008,0
1528310545.628,15.137,35.156,43.945,12.207,52.246,0
1528310545.632,11.719,31.738,45.898,11.230,20.508,0
1528310545.629,5.859,31.738,46.875,7.324,53.711,0
1528310545.633,9.277,37.109,48.340,10.742,13.184,0
1528310545.637,22.461,36.621,51.270,23.438,2.930,0
1528310545.641,19.531,33.203,45.410,20.508,43.457,0
1528310545.645,12.207,35.156,42.969,4.883,-11.719,0
1528310545.649,8.301,35.645,46.875,2.930,-28.809,0
1528310545.653,11.719,34.668,48.340,15.137,36.621,0
1528310545.656,16.602,35.645,49.805,18.555,19.531,0
1528310545.660,7.812,35.156,44.922,9.277,-15.137,0
1528310545.664,1.953,33.691,47.852,6.348,-13.672,0
1528310545.668,12.695,36.133,60.059,17.090,-5.859,0
1528310545.672,28.320,38.574,58.105,24.414,23.438,0
1528310545.689,20.020,34.668,48.340,18.066,41.992,0
1528310545.693,7.812,35.645,43.945,12.695,5.859,0
1528310545.697,18.066,42.969,52.734,20.996,18.066,0
1528310545.701,34.180,44.434,54.688,31.738,82.031,0
1528310545.705,22.461,35.156,42.969,28.320,52.734,0
1528310545.709,11.230,33.691,45.898,18.555,26.367,0
1528310545.713,17.090,36.133,50.293,24.414,34.668,0
1528310545.716,29.297,34.180,51.270,34.180,29.785,0
1528310545.720,37.598,35.156,50.781,29.297,64.453,0
1528310545.724,26.855,36.621,47.363,21.973,45.898,0
1528310545.728,16.113,34.668,50.293,15.137,43.945,0
1528310545.732,32.715,39.062,59.082,32.227,49.316,0
1528310545.729,38.574,40.527,59.570,35.645,39.062,0
1528310545.733,13.672,27.832,46.875,12.207,39.062,0
1528310545.737,7.324,26.855,44.922,10.254,-19.043,0
1528310545.741,22.461,35.156,51.270,14.648,4.395,0
1528310545.745,30.273,35.156,53.711,28.809,67.383,0
1528310545.749,19.531,31.250,46.875,26.367,16.602,0
1528310545.753,15.137,35.645,45.410,10.742,18.555,0
1528310545.756,17.090,38.574,48.340,19.043,57.617,0
1528310545.760,28.809,37.109,45.410,29.297,-20.020,0
1528310545.764,30.762,41.016,48.340,26.367,24.414,0
1528310545.768,16.113,38.086,43.945,16.113,106.934,0
1528310545.772,11.719,32.227,47.852,10.742,62.012,0
1528310545.769,20.020,32.227,54.688,21.973,63.477,0
1528310545.773,20.508,30.273,47.363,20.508,57.617,0
1528310545.777,9.766,31.250,44.434,11.719,-0.488,0
1528310545.781,5.859,31.738,47.363,13.184,6.348,0
1528310545.785,15.137,32.715,50.293,20.508,23.926,0
1528310545.789,18.066,32.715,48.828,23.438,12.695,0
1528310545.793,5.371,31.738,44.922,12.207,60.547,0
1528310545.796,-0.488,30.762,42.969,6.836,55.176,0
1528310545.800,7.324,35.156,48.340,18.066,34.668,0
1528310545.804,14.648,36.133,53.711,20.020,53.223,0
1528310545.808,6.836,31.250,49.805,13.672,16.602,0
1528310545.812,-7.812,31.250,47.852,10.742,23.926,0
1528310545.829,-6.348,31.738,54.688,11.230,44.434,0
1528310545.833,8.789,32.227,57.129,22.949,39.062,0
1528310545.837,8.789,34.180,52.734,19.531,57.617,0
1528310545.841,3.418,37.598,47.363,8.789,25.879,0
1528310545.845,10.254,40.039,48.828,7.324,53.223,0
1528310545.849,23.438,39.062,54.199,19.043,95.703,0
1528310545.853,24.902,40.527,48.340,19.531,80.078,0
1528310545.856,12.695,38.574,44.434,10.254,61.035,0
1528310545.860,12.695,37.598,53.711,9.766,31.250,0
1528310545.864,15.625,35.156,55.664,15.625,34.180,0
1528310545.868,12.695,36.621,50.293,17.578,17.090,0
1528310545.872,8.301,42.969,48.340,12.207,47.363,0
1528310545.869,0.000,40.527,44.434,2.441,69.336,0
1528310545.873,0.977,37.598,43.945,12.695,23.438,0
1528310545.877,8.789,39.551,50.293,25.879,31.250,0
1528310545.881,12.695,42.969,52.246,19.531,63.965,0
1528310545.885,7.324,41.992,47.363,7.324,41.504,0
1528310545.889,5.859,41.016,44.434,-0.488,34.668,0
1528310545.893,17.090,41.016,49.316,9.277,36.621,0
1528310545.896,14.648,42.969,48.828,16.113,42.969,0
1528310545.900,2.441,37.109,44.434,-1.465,-8.301,0
1528310545.904,2.930,33.203,43.945,-4.883,23.438,0
1528310545.908,15.137,38.086,44.922,7.812,54.688,0
1528310545.912,19.531,36.621,50.293,14.648,20.508,0
1528310545.909,13.184,37.598,52.734,11.230,38.574,0
1528310545.913,11.230,39.062,54.688,10.742,48.828,0
1528310545.917,25.391,33.203,53.223,27.344,37.598,0
1528310545.921,30.273,34.180,53.223,30.273,78.613,0
1528310545.925,17.090,35.645,54.688,16.113,105.957,0
1528310545.929,9.277,33.691,49.805,16.113,61.035,0
1528310545.933,19.043,38.086,58.105,24.414,18.066,0
1528310545.936,25.391,36.621,58.594,23.438,-15.625,0
1528310545.940,14.160,31.250,49.805,16.602,0.488,0
1528310545.944,10.254,37.598,53.223,8.301,63.965,0
1528310545.948,14.160,39.551,54.688,9.766,24.414,0
1528310545.952,21.484,39.062,57.129,18.555,46.875,0
1528310545.969,21.973,39.062,50.781,17.090,27.344,0
1528310545.973,19.043,41.016,49.316,12.695,-58.594,0
1528310545.977,15.625,40.039,59.570,19.531,-23.438,0
1528310545.981,18.066,36.133,59.570,23.926,41.016,0
1528310545.985,24.902,37.109,50.293,21.973,13.184,0
1528310545.989,15.137,41.504,46.387,15.625,-9.766,0
1528310545.993,7.324,43.457,49.316,12.207,25.879,0
1528310545.996,18.066,41.992,50.781,15.137,30.273,0
1528310546.000,20.508,40.039,57.129,19.043,49.316,1
1528310546.004,19.043,48.340,59.082,23.926,52.246,0
1528310546.008,14.648,44.434,47.363,17.090,28.320,0
1528310546.012,8.789,33.203,46.875,16.113,34.180,0
1528310546.009,19.531,33.203,51.758,26.367,35.645,0
1528310546.013,24.414,33.691,50.293,27.344,20.508,0
1528310546.017,17.090,37.598,51.758,20.020,1.953,0
1528310546.021,17.090,38.086,57.617,19.043,54.688,0
1528310546.025,28.320,37.598,61.523,30.273,62.988,0
1528310546.029,23.438,37.598,53.711,24.414,29.785,0
1528310546.033,11.719,34.180,47.852,5.859,22.461,0
1528310546.036,4.395,29.785,52.246,9.766,-2.441,0
1528310546.040,15.625,31.738,56.641,21.973,44.922,0
1528310546.044,24.414,36.133,54.199,26.855,62.988,0
1528310546.048,5.859,36.133,51.270,14.648,16.113,0
1528310546.052,0.488,37.598,55.176,4.395,5.859,0
1528310546.048,11.230,37.109,57.129,16.602,15.137,0
1528310546.052,15.137,38.574,58.105,23.438,15.625,0
1528310546.056,10.742,42.480,57.129,17.090,-4.395,0
1528310546.060,-0.488,35.156,49.805,10.742,2.441,0
1528310546.064,0.977,29.785,49.316,7.812,12.207,0
1528310546.068,18.555,35.156,50.293,17.578,44.434,0
1528310546.072,22.461,37.109,47.363,22.949,54.688,0
1528310546.075,18.066,43.945,49.316,15.625,27.832,0
1528310546.079,12.207,43.945,45.898,10.742,-23.926,0
1528310546.083,7.812,39.551,46.875,14.648,-46.387,0
1528310546.087,10.742,41.504,52.246,20.020,43.457,0
1528310546.091,1.465,40.527,50.293,16.113,-1.465,0
1528310546.109,8.789,43.457,50.781,13.184,-16.113,0
1528310546.113,20.508,42.969,54.688,21.973,62.012,0
1528310546.117,15.137,38.086,51.758,26.855,22.949,0
1528310546.121,19.043,43.457,54.688,27.344,-24.414,0
1528310546.125,13.184,42.480,59.570,20.020,-0.977,0
1528310546.129,10.254,34.180,54.688,17.090,61.523,0
1528310546.133,23.438,37.598,53.711,23.438,41.016,0
1528310546.136,22.461,39.062,51.758,24.902,14.160,0
1528310546.140,15.137,40.527,46.387,25.879,-13.672,0
1528310546.144,19.043,44.922,51.270,24.414,-2.441,0
1528310546.148,28.320,43.945,52.734,31.738,55.176,0
1528310546.152,25.391,42.480,50.293,30.273,76.172,0
1528310546.149,20.020,41.992,50.293,15.137,48.340,0
1528310546.153,18.066,40.527,50.293,14.648,20.996,0
1528310546.157,29.297,43.945,57.129,28.809,48.340,0
1528310546.161,32.227,43.945,62.012,27.832,42.480,0
1528310546.165,10.742,32.715,47.363,11.230,9.277,0
1528310546.169,13.672,32.227,42.480,8.301,-16.113,0
1528310546.173,18.066,34.180,54.688,11.719,46.387,0
1528310546.176,18.066,33.691,50.293,20.508,24.414,0
1528310546.180,22.949,35.156,43.945,21.484,-53.711,0
1528310546.184,14.648,33.203,41.016,9.766,-12.207,0
1528310546.188,19.043,35.645,51.758,20.508,6.836,0
1528310546.192,24.902,40.039,66.406,31.250,64.453,0
1528310546.187,12.207,31.250,53.711,20.996,59.082,0
1528310546.191,0.000,27.832,46.387,9.277,11.230,0
1528310546.195,3.418,33.691,49.316,9.766,3.418,0
1528310546.199,12.695,33.691,48.828,20.020,23.438,0
1528310546.203,13.184,32.715,46.387,18.066,37.598,0
1528310546.207,8.301,34.180,46.387,8.301,29.297,0
1528310546.211,3.418,33.203,50.293,2.930,39.551,0
1528310546.214,10.742,33.691,49.805,8.789,54.199,0
1528310546.218,15.625,37.109,47.852,13.672,59.082,0
1528310546.222,5.859,37.598,52.734,6.348,33.691,0
1528310546.226,4.883,36.133,53.711,5.859,38.574,0
1528310546.230,10.742,38.086,50.781,9.277,57.129,0
1528310546.249,15.137,35.645,47.363,16.602,63.965,0
1528310546.253,17.090,42.969,58.105,26.855,63.965,0
1528310546.257,5.859,46.387,57.617,17.090,11.719,0
1528310546.261,-4.883,32.227,44.434,4.883,-18.066,0
1528310546.265,11.230,35.156,50.293,12.695,88.379,0
1528310546.269,21.484,40.039,45.410,20.508,79.590,0
1528310546.273,7.812,41.016,41.016,11.719,2.930,0
1528310546.276,7.324,41.504,51.270,6.836,39.062,0
1528310546.280,23.438,41.504,53.711,17.578,92.285,0
1528310546.284,18.555,41.992,51.758,17.090,76.172,0
1528310546.288,6.836,41.016,50.781,14.648,42.480,0
1528310546.292,9.277,38.574,49.805,20.020,3.906,0
1528310546.290,25.879,37.109,54.688,24.414,-0.488,0
1528310546.294,26.367,39.551,54.199,27.832,38.574,0
1528310546.298,12.695,40.527,54.688,22.461,29.785,0
1528310546.302,6.348,38.574,56.152,10.254,40.039,0
1528310546.306,19.043,36.621,53.223,12.695,30.273,0
1528310546.310,28.320,37.598,54.199,29.297,34.180,0
1528310546.314,14.648,39.551,49.316,20.996,29.297,0
1528310546.317,3.418,41.992,45.410,-4.395,54.688,0
1528310546.321,2.930,41.992,54.199,3.418,69.824,0
1528310546.325,8.789,38.574,51.758,16.113,-17.090,0
1528310546.329,2.441,38.086,50.781,5.859,8.301,0
1528310546.333,-9.277,38.574,55.176,1.465,39.551,0
1528310546.329,-4.883,39.551,58.105,3.906,54.688,0
1528310546.333,11.230,46.387,60.059,14.160,64.453,0
1528310546.337,15.625,47.852,59.570,17.578,-4.395,0
1528310546.341,-4.395,36.621,58.105,1.953,43.457,0
1528310546.345,-13.184,33.203,53.711,-4.883,22.461,0
1528310546.349,-1.465,36.133,58.105,7.324,34.180,0
1528310546.353,10.254,34.668,56.152,18.555,70.801,0
1528310546.356,12.695,34.180,47.852,15.137,18.066,0
1528310546.360,7.812,33.203,49.316,10.254,24.414,0
1528310546.364,14.648,32.715,59.570,20.996,11.230,0
1528310546.368,27.344,35.645,57.617,31.250,50.781,0
1528310546.372,24.902,33.203,50.293,26.855,43.457,0
1528310546.390,18.066,31.250,52.734,23.926,-27.344,0
1528310546.394,18.555,33.203,54.199,27.344,-11.719,0
1528310546.398,23.438,32.715,53.711,23.438,-18.066,0
1528310546.402,35.156,41.992,60.059,23.438,-11.719,0
1528310546.406,31.738,43.945,58.105,27.344,22.949,0
1528310546.410,14.648,31.250,45.410,17.578,38.086,0
1528310546.414,27.344,33.691,45.898,19.043,65.918,0
1528310546.417,36.621,35.645,49.805,21.973,23.438,0
1528310546.421,23.926,36.621,50.293,13.184,18.066,0
1528310546.425,22.949,38.086,54.688,16.602,88.379,0
1528310546.429,32.715,37.109,50.781,28.809,67.383,0
1528310546.433,37.109,35.645,49.316,28.320,10.742,0
1528310546.431,31.738,34.668,55.176,21.484,4.395,0
1528310546.435,23.926,35.645,55.176,19.531,49.316,0
1528310546.439,25.879,37.109,55.664,25.879,80.566,0
1528310546.443,30.273,33.203,55.664,34.180,53.223,0
1528310546.447,24.414,31.738,52.734,33.203,75.195,0
1528310546.451,19.531,36.133,50.293,23.926,40.039,0
1528310546.455,28.320,39.062,55.176,25.879,-26.855,0
1528310546.458,34.180,40.039,59.570,32.227,13.184,0
1528310546.462,25.879,40.527,54.199,26.855,34.180,0
1528310546.466,28.320,45.898,51.758,29.785,46.387,0
1528310546.470,20.508,47.852,62.988,27.344,58.105,0
1528310546.474,11.230,37.109,59.570,19.043,49.316,0
1528310546.469,18.555,34.668,48.340,17.578,24.902,0
1528310546.473,11.719,36.133,51.270,2.930,36.133,0
1528310546.477,-1.465,35.645,50.293,-2.930,34.180,0
1528310546.481,0.488,33.691,51.270,1.465,54.199,0
1528310546.485,11.230,39.551,60.059,14.160,54.199,0
1528310546.489,7.324,46.387,57.617,19.043,32.715,0
1528310546.493,-4.883,36.133,48.828,0.000,24.414,0
1528310546.496,0.000,29.785,41.992,0.000,-5.371,0
1528310546.500,15.137,30.762,47.852,7.324,49.805,0
1528310546.504,14.160,33.203,53.223,14.160,47.363,0
1528310546.508,1.953,35.645,47.363,4.883,19.043,0
1528310546.512,-4.395,34.180,51.270,-3.906,42.969,0
1528310546.529,3.906,34.668,52.734,5.859,71.289,0
1528310546.533,11.230,36.133,48.828,10.254,41.992,0
1528310546.537,1.953,36.621,49.805,6.348,-4.883,0
1528310546.541,8.789,38.086,49.805,1.465,5.859,0
1528310546.545,17.090,36.133,51.758,11.230,-2.930,0
1528310546.549,21.973,45.898,51.758,30.273,22.461,1
1528310546.553,25.391,48.340,44.922,22.949,-11.719,0
1528310546.556,14.160,36.133,42.480,0.000,-14.160,0
1528310546.560,20.020,36.621,50.781,8.301,83.496,0
1528310546.564,25.391,38.574,52.734,18.555,102.539,0
1528310546.568,22.949,43.457,50.293,26.367,6.348,0
1528310546.572,12.207,41.016,50.293,15.137,-44.922,0
1528310546.569,8.789,37.109,52.246,7.324,1.953,0
1528310546.573,24.414,43.457,53.711,20.020,26.855,0
1528310546.577,21.484,44.434,53.223,17.578,56.641,0
1528310546.581,16.113,42.480,49.316,13.672,51.758,0
1528310546.585,22.949,44.922,50.781,15.625,39.551,0
1528310546.589,33.203,46.875,52.246,28.320,57.617,0
1528310546.593,32.715,45.898,50.293,30.273,41.992,0
1528310546.596,19.531,41.016,51.270,12.695,37.598,0
1528310546.600,14.160,40.039,54.199,15.625,44.434,0
1528310546.604,20.508,41.016,53.711,22.461,25.391,0
1528310546.608,19.043,39.551,56.641,19.531,86.914,0
1528310546.612,8.789,36.133,55.664,17.578,104.492,0
1528310546.608,10.254,36.133,56.152,16.602,19.531,0
1528310546.612,15.625,37.109,55.664,18.555,19.043,0
1528310546.616,21.973,37.598,51.270,22.461,28.320,0
1528310546.620,17.090,39.551,52.246,21.484,1.953,0
1528310546.624,1.465,38.086,49.805,9.766,36.133,0
1528310546.628,1.465,34.668,48.340,8.789,22.461,0
1528310546.632,19.531,38.086,54.688,27.344,-7.324,0
1528310546.635,19.043,36.621,45.410,21.484,15.625,0
1528310546.639,5.859,32.227,39.551,-3.418,4.395,0
1528310546.643,4.395,35.156,52.734,0.977,78.125,0
1528310546.647,15.625,34.668,53.711,15.137,85.938,0
1528310546.651,20.996,36.133,51.270,14.160,63.477,0
1528310546.669,14.160,38.086,49.316,7.324,37.109,0
1528310546.673,14.648,41.016,58.105,10.254,34.668,0
1528310546.677,17.090,38.574,63.477,20.508,16.602,0
1528310546.681,16.602,31.738,51.758,21.484,15.137,0
1528310546.685,9.277,33.203,43.457,11.719,12.695,0
1528310546.689,2.930,33.203,44.922,6.836,-37.598,0
1528310546.693,5.859,35.156,55.664,12.207,31.250,0
1528310546.696,11.230,34.668,53.711,14.648,79.590,0
1528310546.700,14.648,38.086,50.293,22.461,52.246,0
1528310546.704,12.207,44.434,57.617,22.949,19.531,0
1528310546.708,-0.488,32.227,49.316,12.207,-1.465,0
1528310546.712,7.812,26.367,49.805,12.695,55.176,0
1528310546.709,18.066,32.715,53.711,12.207,49.316,0
1528310546.713,10.254,33.203,44.922,10.254,-55.176,0
1528310546.717,11.719,35.645,49.316,8.789,-62.012,0
1528310546.721,14.160,35.645,49.805,13.184,31.738,0
1528310546.725,17.090,34.668,46.875,14.160,75.684,0
1528310546.729,11.719,36.133,46.387,7.324,26.367,0
1528310546.733,5.371,36.133,46.387,4.395,36.133,0
1528310546.736,14.160,34.668,50.781,9.766,84.473,0
1528310546.740,21.973,37.598,48.340,19.531,73.242,0
1528310546.744,22.949,50.293,52.246,18.066,66.406,0
1528310546.748,4.395,41.504,51.270,-1.953,38.086,0
1528310546.752,-7.324,30.762,42.480,-9.766,23.438,0
1528310546.748,5.859,37.598,45.410,1.465,70.801,0
1528310546.752,9.277,37.109,44.922,6.836,128.906,0
1528310546.756,-0.977,37.598,44.434,1.953,106.934,0
1528310546.760,7.812,40.527,53.223,9.766,45.410,0
1528310546.764,19.531,40.527,56.641,20.508,68.848,0
1528310546.768,16.602,36.621,51.270,15.625,115.723,0
1528310546.772,5.371,33.203,45.410,5.859,106.934,0
1528310546.775,3.906,35.645,42.480,0.488,20.020,0
1528310546.779,13.672,38.086,50.293,3.418,5.371,0
1528310546.783,13.184,36.133,51.758,5.371,57.617,0
1528310546.787,7.324,36.133,50.293,0.000,56.152,0
1528310546.791,2.441,35.156,49.805,-1.953,45.898,0
1528310546.807,7.812,32.715,50.293,7.812,24.902,0
1528310546.811,14.648,33.691,54.688,19.531,52.734,0
1528310546.815,11.719,36.621,51.758,21.973,73.242,0
1528310546.819,7.324,39.551,53.711,18.066,40.039,0
1528310546.823,18.066,41.016,52.246,16.113,33.203,0
1528310546.827,22.949,40.039,45.898,23.926,6.348,0
1528310546.831,11.230,41.504,46.875,21.973,2.930,0
1528310546.834,-2.441,41.504,49.316,6.836,10.742,0
1528310546.838,-8.789,38.086,47.363,0.977,9.277,0
1528310546.842,8.789,43.457,53.223,15.625,80.566,0
1528310546.846,22.949,48.828,56.641,22.949,83.984,0
1528310546.850,10.742,34.668,41.504,1.465,31.738,0
1528310546.850,5.371,26.855,36.621,-5.371,13.184,0
1528310546.854,16.113,27.832,40.527,3.418,6.836,0
1528310546.858,20.996,29.297,40.039,13.184,-27.832,0
1528310546.862,20.020,34.180,42.480,17.578,-34.180,0
1528310546.866,9.766,34.668,47.363,16.602,41.504,0
1528310546.870,16.113,36.133,47.852,18.555,17.578,0
1528310546.874,21.484,35.645,49.805,21.484,-5.371,0
1528310546.877,12.207,35.645,50.293,20.508,43.945,0
1528310546.881,7.812,37.109,43.945,10.254,47.852,0
1528310546.885,8.789,33.691,41.016,0.488,26.367,0
1528310546.889,20.996,32.715,46.875,11.230,-24.902,0
1528310546.893,25.879,34.180,52.734,22.461,-21.973,0
1528310546.911,13.672,34.180,53.223,13.672,52.246,0
1528310546.915,9.277,36.621,49.805,14.648,69.824,0
1528310546.919,20.508,35.156,51.270,25.879,52.246,0
1528310546.923,21.484,32.715,53.711,25.879,40.039,0
1528310546.927,10.742,34.668,50.781,15.137,15.137,0
1528310546.931,7.812,33.203,42.969,4.395,-50.293,0
1528310546.935,17.578,38.086,47.363,16.602,-2.441,0
1528310546.938,26.855,42.480,49.805,21.973,75.195,0
1528310546.942,18.066,31.250,41.504,5.371,23.438,0
1528310546.946,12.695,28.809,43.945,2.930,-26.855,0
1528310546.950,12.207,31.250,49.805,7.324,-1.465,0
1528310546.954,10.254,31.250,53.711,18.555,44.434,0
1528310546.950,11.230,32.715,54.688,19.531,67.383,0
1528310546.954,8.789,34.668,55.176,10.742,57.129,0
1528310546.958,7.324,36.133,55.664,10.742,41.016,0
1528310546.962,16.113,36.621,55.176,15.625,37.598,0
1528310546.966,21.973,36.133,51.758,20.508,16.602,0
1528310546.970,9.277,35.645,41.992,14.648,8.301,0
1528310546.974,-1.465,33.691,42.969,10.742,39.062,0
1528310546.977,7.324,33.691,50.293,15.625,66.895,0
1528310546.981,13.184,30.762,48.828,18.066,53.711,0
1528310546.985,3.418,29.297,48.340,11.719,79.590,0
1528310546.989,-1.465,25.391,43.945,8.301,60.547,0
1528310546.993,8.301,25.391,48.828,14.648,38.086,0
1528310546.990,20.508,25.879,54.199,20.996,24.414,0
1528310546.994,11.719,26.855,57.129,17.090,10.742,0
1528310546.998,-7.324,24.902,54.688,3.906,35.645,0
1528310547.002,-5.859,20.020,45.410,4.395,-8.301,0
1528310547.006,8.789,24.902,48.340,13.184,16.602,0
1528310547.010,12.207,29.785,45.410,11.230,41.504,0
1528310547.014,8.301,32.227,45.410,5.859,60.059,0
1528310547.017,5.859,34.668,51.270,7.812,70.312,0
1528310547.021,16.602,35.645,47.852,13.672,79.590,0
1528310547.025,20.508,37.109,44.434,5.371,134.277,0
1528310547.029,6.836,35.645,40.039,-1.465,52.734,0
1528310547.033,6.836,34.668,42.969,6.836,3.418,0
1528310547.049,18.066,35.156,57.129,18.555,93.262,0
1528310547.053,19.531,36.621,57.617,23.926,92.773,0
1528310547.057,11.230,38.086,51.758,16.113,48.828,0
1528310547.061,5.371,39.551,50.293,6.348,24.414,0
1528310547.065,13.672,39.062,53.711,13.184,-0.488,0
1528310547.069,23.926,35.156,49.805,20.020,40.527,0
1528310547.073,18.555,43.945,54.199,20.508,117.676,0
1528310547.076,7.812,42.969,52.734,11.230,122.070,0
1528310547.080,3.906,31.250,46.387,2.441,45.898,0
1528310547.084,14.648,35.645,52.734,13.672,71.289,0
1528310547.088,15.625,39.062,49.316,16.602,93.262,0
1528310547.092,19.531,39.551,42.480,10.742,28.809,0
1528310547.089,16.602,39.062,46.875,6.348,23.926,0
1528310547.093,13.672,38.574,51.758,12.695,46.387,0
1528310547.097,20.508,40.039,50.293,20.508,51.758,0
1528310547.101,7.812,40.039,46.387,14.160,39.062,0
1528310547.105,1.465,39.062,47.363,8.301,52.246,0
1528310547.109,10.742,38.086,52.246,18.555,44.434,0
1528310547.113,14.160,38.574,52.246,26.367,-8.301,0
1528310547.116,6.348,39.551,51.270,17.578,12.207,0
1528310547.120,-0.977,40.527,50.293,10.254,27.832,0
1528310547.124,1.953,43.945,51.758,14.648,23.438,0
1528310547.128,8.789,43.457,50.293,18.066,38.086,0
1528310547.132,7.812,41.992,48.340,10.254,20.508,0
1528310547.129,0.000,41.992,46.875,-0.977,-13.184,0
1528310547.133,0.488,39.062,51.758,3.418,-0.488,0
1528310547.137,11.230,39.062,53.711,19.531,50.781,0
1528310547.141,15.625,39.062,47.852,15.137,41.016,0
1528310547.145,4.395,38.086,49.316,4.883,22.949,0
1528310547.149,2.441,38.086,46.387,12.695,0.977,0
1528310547.153,14.648,36.621,49.316,18.066,-4.883,2
1528310547.156,18.555,34.180,57.617,17.090,44.922,0
1528310547.160,15.625,47.363,56.641,19.531,27.832,0
1528310547.164,14.160,50.781,57.617,11.230,5.859,0
1528310547.168,4.883,34.180,53.223,7.812,40.527,0
1528310547.172,6.836,29.785,49.316,15.625,47.852,0
1528310547.189,2.930,32.227,51.270,7.324,88.379,0
1528310547.193,-1.953,30.762,46.875,-0.977,74.707,0
1528310547.197,5.859,29.297,45.898,5.859,-28.320,0
1528310547.201,15.137,32.715,50.781,15.137,-19.043,0
1528310547.205,18.066,32.715,46.387,15.137,0.000,0
1528310547.209,11.230,32.227,45.898,10.254,-20.020,0
1528310547.213,9.766,33.203,46.875,4.883,27.832,0
1528310547.216,20.020,33.203,43.945,8.789,63.965,0
1528310547.220,23.438,34.668,45.410,12.695,51.270,0
1528310547.224,15.625,33.691,43.945,6.348,62.500,0
1528310547.228,9.766,34.180,46.875,-1.465,83.496,0
1528310547.232,20.996,31.250,45.410,7.812,67.871,0
1528310547.229,25.391,26.855,41.992,14.648,42.480,0
1528310547.233,7.324,28.809,43.457,4.395,55.664,0
1528310547.237,-3.906,29.785,42.480,-0.488,68.848,0
1528310547.241,9.277,27.832,45.410,1.465,48.340,0
1528310547.245,16.113,26.367,44.434,4.395,49.805,0
1528310547.249,9.277,26.855,37.598,2.930,29.297,0
1528310547.253,2.441,28.809,39.551,-2.441,72.266,0
1528310547.256,6.348,30.762,45.410,1.953,91.797,0
1528310547.260,24.414,31.738,48.828,13.672,85.449,0
1528310547.264,20.020,31.250,40.039,11.230,72.754,0
1528310547.268,9.277,35.156,36.133,8.789,7.324,0
1528310547.272,20.996,42.480,48.828,14.160,-19.043,0
1528310547.269,20.508,34.668,48.828,15.137,4.883,0
1528310547.273,18.066,25.879,44.434,12.207,64.453,0
1528310547.277,11.230,29.297,46.387,16.602,88.379,0
1528310547.281,6.836,31.738,48.340,15.625,41.504,0
1528310547.285,18.066,30.273,52.246,14.648,20.508,0
1528310547.289,26.367,27.832,48.828,21.484,55.664,0
1528310547.293,20.020,31.250,49.316,14.648,49.805,0
1528310547.296,17.090,34.668,49.805,6.836,26.367,0
1528310547.300,20.020,30.762,41.992,9.277,-19.043,0
1528310547.304,24.902,28.320,44.922,10.254,-50.293,0
1528310547.308,17.578,28.809,45.898,5.371,1.465,0
1528310547.312,14.648,27.832,41.504,6.836,44.922,0
1528310547.330,19.043,26.855,47.363,14.160,56.152,0
1528310547.334,21.484,28.809,49.805,18.066,64.941,0
1528310547.338,22.949,26.367,43.457,11.719,26.855,0
1528310547.342,11.230,27.344,41.016,6.348,-17.578,0
1528310547.346,13.672,34.668,47.852,9.766,1.953,0
1528310547.350,24.414,33.691,54.688,18.555,65.918,0
1528310547.354,28.809,33.691,46.875,20.020,31.738,0
1528310547.357,15.137,34.180,45.410,4.883,20.508,0
1528310547.361,-1.953,33.203,53.711,-1.953,52.734,0
1528310547.365,10.254,35.645,52.734,14.160,21.484,0
1528310547.369,19.043,36.621,51.758,24.902,13.184,0
1528310547.373,11.230,35.156,55.176,17.090,64.453,0
1528310547.371,-0.488,36.621,55.664,15.625,50.293,0
1528310547.375,0.977,36.133,55.176,14.648,42.480,0
1528310547.379,7.324,36.133,51.758,14.160,2.930,0
1528310547.383,2.441,39.062,48.340,11.230,11.719,0
1528310547.387,-6.836,37.598,44.922,5.859,100.586,0
1528310547.391,-4.395,35.645,40.527,6.836,66.895,0
1528310547.395,6.348,36.133,39.062,11.230,-20.996,0
1528310547.398,9.766,36.621,43.457,11.719,1.953,0
1528310547.402,5.371,34.668,46.875,9.277,40.527,0
1528310547.406,8.789,36.133,49.316,17.578,26.367,0
1528310547.410,24.414,38.574,52.734,23.926,20.996,0
1528310547.414,25.391,37.598,49.316,21.973,-29.785,0
1528310547.410,13.184,35.156,44.922,14.160,-48.340,0
1528310547.414,13.184,35.156,46.387,9.766,21.484,0
1528310547.418,22.461,34.668,46.875,19.043,39.551,0
1528310547.422,28.809,35.645,47.363,21.973,95.703,0
1528310547.426,27.344,38.086,45.410,18.555,66.406,0
1528310547.430,21.973,38.086,42.480,20.020,-43.945,0
1528310547.434,25.879,37.109,48.828,21.484,-10.742,0
1528310547.437,32.715,35.645,52.734,32.227,22.461,0
1528310547.441,27.832,35.645,48.340,34.180,22.949,0
1528310547.445,18.555,33.691,49.805,18.555,27.344,0
1528310547.449,19.531,34.180,54.199,14.160,52.246,0
1528310547.453,27.832,36.621,51.758,24.902,69.336,0
1528310547.489,27.344,35.156,45.410,25.391,37.109,0
1528310547.493,17.578,33.691,43.945,11.230,-15.625,0
1528310547.497,19.043,36.133,49.316,9.766,15.137,0
1528310547.501,31.738,39.551,51.270,23.926,43.457,0
1528310547.505,30.273,38.574,46.387,23.926,32.227,0
1528310547.509,15.625,35.645,41.016,14.648,40.527,0
1528310547.513,10.254,31.738,38.574,11.719,32.227,0
1528310547.516,16.113,29.785,44.434,12.207,78.613,0
1528310547.520,25.391,30.762,51.758,16.602,59.570,0
1528310547.524,18.555,31.738,49.805,10.254,-13.672,0
1528310547.528,4.883,29.297,44.434,3.906,-61.523,0
1528310547.532,10.254,24.902,44.434,8.301,-65.918,0
1528310547.511,18.555,25.879,47.363,10.742,-17.090,0
1528310547.515,17.090,32.715,40.527,0.000,-14.160,0
1528310547.519,5.859,32.227,35.645,-7.812,-0.488,0
1528310547.523,3.418,31.738,42.480,1.465,18.066,0
1528310547.527,19.531,36.133,50.293,12.695,45.410,0
1528310547.531,21.973,32.715,45.410,12.207,83.008,0
1528310547.535,8.789,33.203,37.109,-0.977,57.617,0
1528310547.538,6.348,36.621,40.527,-4.395,-0.977,0
1528310547.542,14.160,35.156,46.387,5.371,-8.789,0
1528310547.546,20.996,32.715,45.410,13.184,42.969,0
1528310547.550,15.625,34.668,45.898,8.789,53.223,0
1528310547.554,7.812,38.574,44.434,1.465,39.062,0
1528310547.549,12.695,36.133,47.363,5.371,56.152,0
1528310547.553,20.996,38.086,54.199,13.184,52.734,0
1528310547.557,11.230,36.621,42.480,0.977,24.902,0
1528310547.561,3.418,29.785,38.086,-7.812,22.949,0
1528310547.565,4.395,30.762,53.223,2.930,17.090,0
1528310547.569,5.859,33.203,52.246,10.742,26.367,0
1528310547.573,10.742,33.203,47.363,10.254,33.203,0
1528310547.576,3.418,29.785,43.945,1.953,13.672,0
1528310547.580,2.441,27.344,42.969,-0.488,-0.977,0
1528310547.584,5.859,27.344,51.758,0.977,30.273,0
1528310547.588,11.230,28.320,55.664,6.836,34.180,0
1528310547.592,5.371,28.320,50.293,7.812,30.762,0
1528310547.609,-2.930,25.879,44.434,4.395,-0.488,0
1528310547.613,6.836,25.391,48.340,13.184,-17.090,0
1528310547.617,13.184,27.344,53.711,17.090,29.785,0
1528310547.621,8.301,28.320,49.316,6.836,37.598,0
1528310547.625,0.000,29.297,46.875,-1.465,27.344,0
1528310547.629,2.441,28.320,47.363,4.883,51.758,0
1528310547.633,7.324,30.273,48.340,11.230,104.980,0
1528310547.636,0.488,34.180,45.898,-0.488,82.520,0
1528310547.640,-8.789,31.738,45.898,-2.930,31.738,0
1528310547.644,-0.488,26.855,47.363,5.371,-39.062,0
1528310547.648,17.578,27.344,48.828,9.766,-31.738,0
1528310547.652,12.695,29.297,45.898,10.742,60.547,0
1528310547.649,-0.488,31.738,41.992,5.371,26.367,0
1528310547.653,-0.977,32.715,43.945,1.465,-16.602,0
1528310547.657,5.371,32.715,48.340,11.719,-17.578,0
1528310547.661,10.254,34.668,44.434,11.719,0.000,0
1528310547.665,1.953,38.086,42.480,3.418,14.648,0
1528310547.669,-0.977,38.574,46.387,4.395,13.672,0
1528310547.673,11.719,39.062,49.805,13.184,86.914,0
1528310547.676,17.090,40.039,50.293,20.020,74.707,0
1528310547.680,10.742,38.574,48.340,10.254,1.465,0
1528310547.684,2.441,41.016,42.969,1.465,24.414,0
1528310547.688,5.371,41.992,47.363,2.441,39.062,0
1528310547.692,17.090,36.621,53.711,11.719,-17.090,0
1528310547.689,13.184,39.062,50.781,14.648,-11.719,0
1528310547.693,5.371,43.945,52.246,6.836,21.973,0
1528310547.697,7.324,41.992,50.293,0.488,-15.625,0
1528310547.701,21.973,39.551,55.664,7.324,36.621,0
1528310547.705,25.879,40.039,61.523,17.578,75.195,0
1528310547.709,4.883,32.227,50.781,7.324,14.160,0
1528310547.713,-9.277,27.344,48.340,-0.977,21.484,0
1528310547.716,2.930,33.203,51.758,12.695,46.875,0
1528310547.720,15.137,35.645,47.363,22.461,33.203,0
1528310547.724,10.742,36.621,46.875,7.324,30.273,0
1528310547.728,11.230,39.551,48.828,4.883,76.660,0
1528310547.732,18.555,35.156,50.293,17.578,47.852,1
1528310547.749,25.879,36.133,51.758,21.973,61.523,0
1528310547.753,24.902,41.504,50.781,18.066,97.168,0
1528310547.757,13.672,37.109,46.875,6.836,37.109,0
1528310547.761,18.555,32.715,47.363,10.254,17.578,0
1528310547.765,27.832,36.621,53.711,21.973,49.316,0
1528310547.769,29.297,39.062,52.246,20.020,63.965,0
1528310547.773,20.508,36.133,44.434,0.488,9.277,0
1528310547.776,6.836,38.086,50.781,-4.395,-1.465,0
1528310547.780,15.625,37.109,54.199,13.672,34.668,0
1528310547.784,17.090,34.668,51.270,16.602,20.020,0
1528310547.788,4.395,37.598,49.316,12.695,-33.691,0
1528310547.792,6.836,39.551,48.340,10.742,-33.203,0
1528310547.789,17.578,41.016,55.176,15.137,19.531,0
1528310547.793,23.926,39.062,55.664,22.949,15.137,0
1528310547.797,24.414,38.086,50.781,19.531,30.273,0
1528310547.801,13.184,44.922,52.734,17.578,78.125,0
1528310547.805,4.395,40.527,50.781,18.066,87.402,0
1528310547.809,11.719,34.668,42.480,20.996,35.645,0
1528310547.813,10.742,36.133,42.969,15.625,45.410,0
1528310547.816,5.859,37.598,47.852,9.277,51.270,0
1528310547.820,3.906,39.062,51.758,10.254,16.602,0
1528310547.824,13.672,39.551,50.293,16.113,51.758,0
1528310547.828,18.555,38.574,47.852,10.254,61.523,0
1528310547.832,12.207,42.969,52.734,4.883,19.531,0
1528310547.829,11.719,45.410,55.176,7.812,28.320,0
1528310547.833,12.695,39.551,51.758,16.113,9.766,0
1528310547.837,15.625,39.551,49.316,20.996,9.766,0
1528310547.841,10.254,39.551,46.387,11.230,2.930,0
1528310547.845,7.812,40.527,49.805,13.184,-11.719,0
1528310547.849,14.160,43.945,55.176,24.414,38.086,0
1528310547.853,15.137,43.457,56.152,27.832,8.789,0
1528310547.856,10.254,45.410,50.781,14.160,21.484,0
1528310547.860,1.953,45.410,43.457,3.418,40.527,0
1528310547.864,9.766,45.898,53.223,18.555,-13.184,0
1528310547.868,23.926,47.363,62.012,30.762,36.133,0
1528310547.872,8.789,39.551,47.363,14.160,52.246,0
1528310547.889,-5.859,35.156,37.109,8.301,15.625,0
1528310547.893,0.488,36.133,45.410,15.137,42.480,0
1528310547.897,18.066,35.645,49.316,20.996,10.742,0
1528310547.901,19.043,35.645,48.828,22.949,-21.484,0
1528310547.905,2.441,33.203,49.805,19.531,26.855,0
1528310547.909,4.395,33.691,43.945,20.996,-4.883,0
1528310547.913,15.137,33.203,45.898,27.344,-35.156,0
1528310547.916,17.578,28.809,54.199,23.438,30.762,0
1528310547.920,13.672,31.250,49.805,15.625,40.527,0
1528310547.924,10.742,34.668,51.270,14.160,29.785,0
1528310547.928,16.113,32.715,54.688,20.020,68.848,0
1528310547.932,21.484,32.715,52.246,26.367,51.270,0
1528310547.930,14.160,34.180,51.758,16.602,76.660,0
1528310547.934,5.371,32.715,48.828,6.836,42.969,0
1528310547.938,11.230,32.715,51.758,16.113,-16.602,0
1528310547.942,22.461,34.180,55.664,30.273,23.438,0
1528310547.946,15.625,35.645,53.711,24.902,33.691,0
1528310547.950,7.812,36.133,51.270,15.625,-4.883,0
1528310547.954,10.742,31.738,52.246,14.648,-4.883,0
1528310547.957,15.137,29.297,55.176,17.090,22.949,0
1528310547.961,22.461,32.227,51.758,19.531,45.898,0
1528310547.965,15.137,31.250,43.457,8.301,41.016,0
1528310547.969,5.371,32.227,46.387,-2.441,3.906,0
1528310547.973,10.254,33.203,55.664,7.812,21.973,0
1528310547.970,14.160,33.203,53.711,22.949,57.617,0
1528310547.974,3.906,33.691,45.410,10.742,7.324,0
1528310547.978,-0.977,34.180,48.340,2.441,43.457,0
1528310547.982,5.371,34.668,52.246,15.137,20.996,0
1528310547.986,11.230,35.645,53.223,20.020,42.480,0
1528310547.990,12.207,34.180,48.828,11.719,91.309,0
1528310547.994,7.812,31.738,47.852,-0.488,-0.488,0
1528310547.997,6.348,31.738,49.805,2.930,33.203,0
1528310548.001,14.160,32.715,52.734,15.625,102.051,0
1528310548.005,11.230,32.715,55.664,17.090,52.734,0
1528310548.009,3.418,34.180,50.781,11.719,-13.672,0
1528310548.013,4.883,36.133,51.758,9.766,20.996,0
1528310548.030,13.184,33.203,46.387,16.113,22.461,0
1528310548.034,17.090,30.273,44.434,18.555,0.977,0
1528310548.038,13.672,34.668,46.387,15.625,11.230,0
1528310548.042,7.812,36.133,44.922,11.719,-32.227,0
1528310548.046,15.625,34.668,46.387,13.672,-29.785,0
1528310548.050,20.996,32.227,42.969,20.020,16.113,0
1528310548.054,6.836,34.180,45.410,16.113,76.172,0
1528310548.057,7.812,34.668,51.758,12.695,62.500,0
1528310548.061,16.113,36.621,52.246,21.973,65.918,0
1528310548.065,24.902,40.039,51.758,27.832,83.984,0
1528310548.069,25.879,40.039,46.387,25.879,70.801,0
1528310548.073,9.277,38.574,44.922,15.625,50.781,0
1528310548.070,2.441,40.039,53.711,13.184,40.039,0
1528310548.074,18.555,43.457,59.570,27.832,56.152,0
1528310548.078,20.508,43.457,54.688,24.414,29.785,0
1528310548.082,8.789,41.016,48.340,13.184,45.898,0
1528310548.086,9.277,37.598,49.805,14.648,39.062,0
1528310548.090,20.508,38.574,54.199,26.855,-8.789,0
1528310548.094,20.996,39.551,55.176,28.809,-6.348,0
1528310548.097,5.371,39.062,56.641,15.137,47.363,0
1528310548.101,-3.418,37.598,52.246,6.836,14.648,0
1528310548.105,9.766,40.039,52.734,19.043,-19.531,0
1528310548.109,19.043,41.992,61.035,28.809,25.391,0
1528310548.113,2.930,33.203,53.711,10.254,75.195,0
1528310548.108,-6.836,30.762,44.434,-3.906,69.336,0
1528310548.112,-1.465,35.645,41.016,4.883,-39.551,0
1528310548.116,9.277,35.645,50.781,20.996,2.930,0
1528310548.120,13.672,36.133,55.664,20.508,32.715,0
1528310548.124,9.277,39.551,49.805,14.160,0.488,0
1528310548.128,7.324,38.574,47.363,18.066,53.223,0
1528310548.132,15.625,36.621,50.781,19.531,55.664,0
1528310548.135,21.973,41.016,51.758,20.508,49.805,0
1528310548.139,17.090,41.016,44.434,14.160,46.875,0
1528310548.143,12.695,36.621,45.410,7.812,0.488,0
1528310548.147,21.973,38.574,50.781,20.508,17.578,0
1528310548.151,28.320,38.574,51.270,28.320,6.836,0
1528310548.169,14.648,38.086,49.805,14.160,-13.672,0
1528310548.173,6.348,37.109,54.688,9.277,69.336,0
1528310548.177,16.602,35.645,55.664,22.461,110.352,0
1528310548.181,24.902,36.621,54.199,30.762,88.379,0
1528310548.185,20.020,35.645,49.316,26.855,45.898,0
1528310548.189,15.625,35.156,41.016,22.461,17.090,0
1528310548.193,20.508,34.180,45.898,21.484,40.039,0
1528310548.196,31.250,36.621,52.246,23.926,35.645,0
1528310548.200,26.855,40.527,47.852,23.926,20.996,0
1528310548.204,14.648,41.504,44.922,12.207,22.461,0
1528310548.208,15.137,36.621,47.363,11.230,49.805,0
1528310548.212,22.949,36.133,49.805,20.020,71.777,0
1528310548.209,25.879,40.039,47.363,15.137,16.113,0
1528310548.213,20.508,41.016,41.504,11.719,-25.879,0
1528310548.217,12.695,44.434,44.922,9.277,15.137,0
1528310548.221,12.207,41.016,49.805,10.254,74.219,0
1528310548.225,25.391,41.016,55.176,10.742,51.270,0
1528310548.229,20.020,40.527,50.781,4.883,-8.789,0
1528310548.233,1.465,33.203,45.410,-1.953,-0.488,0
1528310548.236,8.301,35.645,52.734,1.465,44.434,0
1528310548.240,16.602,34.668,47.363,11.719,57.129,0
1528310548.244,9.277,30.762,37.598,8.301,28.320,1
1528310548.248,2.930,31.738,44.922,0.977,24.414,0
1528310548.252,10.254,35.645,51.758,1.465,22.461,0
1528310548.249,22.461,34.668,50.293,10.254,-1.465,0
1528310548.253,23.926,39.551,49.316,21.484,2.930,0
1528310548.257,25.879,46.387,49.316,18.066,4.395,0
1528310548.261,10.742,35.156,43.457,2.930,-20.996,0
1528310548.265,5.371,26.855,42.969,5.859,30.273,0
1528310548.269,17.090,30.273,41.016,14.648,91.309,0
1528310548.273,13.184,35.156,40.039,4.883,66.895,0
1528310548.276,8.301,34.180,39.062,0.000,19.531,0
1528310548.280,14.160,32.715,41.504,9.766,27.344,0
1528310548.284,24.414,37.598,45.410,17.090,36.133,0
1528310548.288,16.602,37.598,41.992,7.324,16.602,0
1528310548.292,11.719,37.598,46.387,5.859,20.996,0
1528310548.309,18.555,36.621,47.363,13.184,-0.488,0
1528310548.313,20.020,36.133,47.363,11.719,3.906,0
1528310548.317,15.625,37.109,42.969,6.836,83.008,0
1528310548.321,5.371,36.133,38.574,0.000,86.426,0
1528310548.325,5.859,35.156,44.922,-1.953,58.105,0
1528310548.329,21.484,35.156,45.898,11.719,47.363,0
1528310548.333,23.926,35.156,44.922,17.090,43.945,0
1528310548.336,9.277,36.133,50.293,10.742,53.711,0
1528310548.340,9.766,38.086,50.781,8.789,42.969,0
1528310548.344,17.090,36.133,49.316,19.531,11.230,0
1528310548.348,16.113,32.715,48.340,27.344,5.371,0
1528310548.352,9.766,35.645,49.805,14.160,30.762,0
1528310548.349,9.766,36.133,47.852,6.836,24.414,0
1528310548.353,17.090,33.691,47.363,12.695,67.383,0
1528310548.357,22.949,35.156,48.828,16.602,57.617,0
1528310548.361,15.137,34.180,44.922,9.766,-8.789,0
1528310548.365,4.395,32.715,44.922,0.488,11.230,0
1528310548.369,12.695,36.621,47.852,7.324,73.242,0
1528310548.373,32.715,39.551,45.410,22.461,49.316,0
1528310548.376,39.551,41.992,44.434,21.973,35.156,0
1528310548.380,21.973,42.480,46.875,18.555,58.594,0
1528310548.384,14.648,38.086,43.457,12.695,37.598,0
1528310548.388,25.879,36.621,47.852,17.090,39.062,0
1528310548.392,22.461,34.668,52.734,25.391,58.105,0
1528310548.388,10.742,31.738,47.363,13.184,30.273,0
1528310548.392,11.230,31.738,47.852,4.883,28.320,0
1528310548.396,26.367,32.227,50.293,16.113,60.547,0
1528310548.400,29.297,32.715,47.852,20.996,-4.395,0
1528310548.404,20.508,35.156,47.363,14.648,-22.461,0
1528310548.408,15.625,31.738,43.457,12.695,-21.484,0
1528310548.412,22.461,32.227,45.898,22.461,-11.719,0
1528310548.415,23.926,36.133,48.340,23.926,42.480,0
1528310548.419,16.602,35.645,48.828,9.766,39.062,0
1528310548.423,6.836,38.086,52.734,1.465,38.574,0
1528310548.427,5.371,41.016,53.223,4.883,16.602,0
1528310548.431,24.414,45.898,52.246,19.043,-5.371,0
1528310548.450,16.602,39.062,42.969,13.672,15.137,0
1528310548.454,4.395,34.180,37.598,0.977,-11.230,0
1528310548.458,8.789,37.109,41.504,6.348,-48.828,0
1528310548.462,18.555,36.133,41.992,14.648,7.324,0
1528310548.466,18.555,36.133,44.922,11.719,86.426,0
1528310548.470,4.395,35.156,43.457,3.418,41.016,0
1528310548.474,2.441,37.109,45.898,4.395,1.953,0
1528310548.477,13.672,39.062,56.152,13.184,91.797,0
1528310548.481,23.438,38.086,50.781,18.555,87.891,0
1528310548.485,18.555,40.039,47.852,18.066,15.137,0
1528310548.489,3.906,36.133,47.363,14.648,25.391,0
1528310548.493,9.277,32.715,49.805,18.066,61.523,0
1528310548.490,17.090,37.598,51.758,24.414,67.871,0
1528310548.494,12.695,36.621,45.410,20.508,38.086,0
1528310548.498,9.766,32.227,43.945,18.066,40.527,0
1528310548.502,14.648,33.691,46.875,20.996,-2.930,0
1528310548.506,21.973,34.668,50.781,23.926,-22.949,0
1528310548.510,20.508,32.715,43.945,21.484,10.742,0
1528310548.514,8.789,32.227,36.133,8.789,37.598,0
1528310548.517,7.812,31.738,46.387,6.348,58.105,0
1528310548.521,20.020,30.762,48.340,18.066,41.016,0
1528310548.525,18.066,28.809,42.969,15.137,26.367,0
1528310548.529,12.695,31.250,46.875,6.348,40.527,0
1528310548.533,4.395,30.762,45.898,6.836,12.695,0
1528310548.549,7.324,28.809,48.828,17.090,39.551,0
1528310548.553,23.438,31.250,45.898,22.949,21.484,0
1528310548.557,8.789,31.738,40.527,9.766,-10.254,0
1528310548.561,-1.953,31.738,42.969,2.441,34.668,0
1528310548.565,6.836,32.227,42.969,14.160,23.926,0
1528310548.569,17.578,33.691,44.434,25.391,-37.598,0
1528310548.573,14.648,33.203,44.922,20.996,-0.488,0
1528310548.576,6.348,31.738,42.480,11.719,-6.836,0
1528310548.580,8.301,30.762,51.270,5.371,19.531,0
1528310548.584,19.043,33.203,53.711,14.160,66.895,0
1528310548.588,19.043,38.574,47.852,18.066,86.426,0
1528310548.592,6.836,36.133,41.992,11.719,62.500,0
1528310548.588,9.766,32.227,46.875,13.672,40.527,0
1528310548.592,23.438,36.133,52.246,22.461,64.453,0
1528310548.596,22.461,37.598,44.434,23.926,44.434,0
1528310548.600,10.254,37.109,46.875,11.230,20.020,0
1528310548.604,8.789,39.551,54.688,7.812,63.477,0
1528310548.608,18.066,41.016,51.758,21.973,86.914,0
1528310548.612,31.250,45.410,57.129,33.691,62.012,0
1528310548.615,28.809,43.457,55.664,25.879,19.043,0
1528310548.619,7.324,34.180,42.969,3.906,7.812,0
1528310548.623,9.277,37.109,43.457,8.789,21.973,0
1528310548.627,20.020,39.062,40.039,23.438,10.742,0
1528310548.631,19.531,38.574,41.504,19.043,61.523,0
1528310548.630,14.648,42.969,46.875,21.484,44.922,0
1528310548.634,15.625,44.922,53.711,24.414,53.711,0
1528310548.638,25.879,40.527,60.547,32.227,51.758,0
1528310548.642,30.273,39.551,58.594,39.551,-4.883,0
1528310548.646,24.414,41.504,54.688,24.902,-7.324,0
1528310548.650,14.648,38.574,54.199,15.137,29.297,0
1528310548.654,17.090,37.598,56.152,18.555,62.988,0
1528310548.657,23.926,38.086,53.711,21.973,71.777,0
1528310548.661,14.160,38.574,44.922,9.766,29.297,0
1528310548.665,3.418,39.062,45.410,-1.465,19.531,0
1528310548.669,11.719,37.598,47.852,10.254,41.504,0
1528310548.673,23.438,35.156,46.875,21.973,21.973,0
1528310548.689,20.996,39.062,48.340,19.531,31.738,0
1528310548.693,16.113,44.434,45.410,18.066,-17.578,0
1528310548.697,9.766,31.738,47.363,9.766,-10.742,0
1528310548.701,13.672,26.367,48.828,10.742,44.922,0
1528310548.705,16.602,33.203,41.992,12.695,6.348,0
1528310548.709,7.324,34.668,43.457,4.883,9.766,0
1528310548.713,5.371,35.645,44.434,6.348,44.434,0
1528310548.716,21.973,37.598,43.457,12.207,62.500,0
1528310548.720,26.855,38.086,49.316,14.160,23.926,0
1528310548.724,10.742,36.621,52.734,11.719,0.488,0
1528310548.728,4.395,36.133,51.758,11.719,27.344,0
1528310548.732,19.531,39.062,54.688,29.297,75.195,0
1528310548.728,31.738,40.527,56.641,30.273,56.152,0
1528310548.732,25.391,39.062,50.781,15.137,18.555,0
1528310548.736,17.578,38.574,46.387,12.207,15.137,0
1528310548.740,23.438,39.062,49.316,18.066,3.906,0
1528310548.744,32.715,41.504,50.781,27.344,60.547,0
1528310548.748,21.973,38.086,47.852,21.484,63.477,0
1528310548.752,5.371,34.668,49.316,14.160,47.852,0
1528310548.755,6.348,39.551,50.781,15.137,81.543,0
1528310548.759,18.066,39.551,52.246,20.996,45.410,0
1528310548.763,16.602,39.551,52.734,23.926,11.230,0
1528310548.767,5.859,42.480,50.293,12.207,62.012,0
1528310548.771,8.789,41.504,51.270,9.277,74.219,0
1528310548.770,22.461,40.039,54.688,22.461,60.547,0
1528310548.774,20.508,39.062,57.617,25.391,55.664,0
1528310548.778,8.301,39.551,48.828,17.090,9.766,0
1528310548.782,5.859,35.156,43.945,15.625,-16.602,0
1528310548.786,23.926,42.969,63.477,29.297,18.555,0
1528310548.790,23.438,43.457,64.453,30.273,-29.785,0
1528310548.794,-4.395,28.809,47.852,5.371,16.113,0
1528310548.797,-7.324,30.273,44.434,-6.836,44.434,0
1528310548.801,2.930,30.762,45.898,-0.488,20.996,0
1528310548.805,13.184,33.203,47.852,3.906,57.617,2
1528310548.809,11.230,40.039,50.781,2.930,34.180,0
1528310548.813,-1.465,39.062,51.270,-2.441,20.508,0
1528310548.830,-4.883,36.133,51.270,-2.441,16.113,0
1528310548.834,3.418,36.133,52.246,6.348,16.113,0
1528310548.838,7.324,37.109,45.410,1.465,12.207,0
1528310548.842,1.953,39.062,43.945,-7.812,15.625,0
1528310548.846,-2.441,38.574,51.270,-5.371,54.688,0
1528310548.850,11.230,41.504,52.734,13.672,41.504,0
1528310548.854,21.973,43.945,45.898,16.602,-7.812,0
1528310548.857,11.230,38.574,45.410,-0.488,9.766,0
1528310548.861,3.906,35.156,51.758,-2.441,-17.578,0
1528310548.865,8.301,35.645,51.758,5.859,-18.066,0
1528310548.869,12.207,33.691,56.641,9.766,51.758,0
1528310548.873,5.859,33.691,52.734,4.395,79.102,0
1528310548.870,-3.418,34.180,46.387,-0.488,55.176,0
1528310548.874,1.465,34.668,56.641,7.324,39.062,0
1528310548.878,9.277,34.668,59.082,17.090,47.852,0
1528310548.882,11.230,36.621,54.199,19.531,71.289,0
1528310548.886,7.812,40.039,49.805,11.719,57.129,0
1528310548.890,3.906,39.062,50.781,9.766,13.184,0
1528310548.894,19.043,36.621,56.152,23.438,-14.160,0
1528310548.897,26.855,32.715,57.617,25.391,-3.418,0
1528310548.901,11.230,32.715,59.570,16.113,41.504,0
1528310548.905,3.906,32.227,58.105,10.254,39.551,0
1528310548.909,15.137,32.715,52.734,12.695,5.859,0
1528310548.913,27.832,43.457,61.035,20.996,52.246,0
1528310548.909,14.160,39.062,53.711,15.137,31.250,0
1528310548.913,10.254,33.691,44.434,8.789,-3.418,0
1528310548.917,18.555,39.551,50.293,17.090,44.434,0
1528310548.921,20.996,37.109,50.781,21.484,51.758,0
1528310548.925,20.020,37.109,52.734,15.625,44.434,0
1528310548.929,14.160,41.504,55.664,14.160,38.574,0
1528310548.933,19.531,42.969,56.152,21.484,73.730,0
1528310548.936,23.438,42.480,53.223,24.902,92.773,0
1528310548.940,18.066,44.922,46.387,18.555,56.152,0
1528310548.944,4.395,44.434,47.363,7.812,17.090,0
1528310548.948,3.418,43.457,48.340,3.418,-30.273,0
1528310548.952,13.672,47.363,47.852,8.301,-18.555,0
1528310548.969,13.184,45.410,51.270,10.742,49.805,0
1528310548.973,3.906,44.434,49.805,5.371,53.711,0
1528310548.977,2.930,42.969,51.270,0.000,25.879,0
1528310548.981,10.254,38.086,54.199,10.742,44.434,0
1528310548.985,15.137,39.062,50.293,18.555,-20.996,0
1528310548.989,12.207,41.992,47.363,12.695,-0.488,0
1528310548.993,10.254,41.504,43.945,10.254,55.176,0
1528310548.996,23.438,45.410,49.805,21.973,-3.906,0
1528310549.000,27.832,41.992,53.223,24.414,-44.434,0
1528310549.004,15.137,33.691,46.875,11.719,-11.230,0
1528310549.008,6.836,37.109,45.410,10.742,67.383,0
1528310549.012,5.371,38.086,41.016,16.113,87.402,0
1528310549.009,11.719,36.133,43.945,21.484,100.586,0
1528310549.013,12.695,40.039,52.734,20.020,92.285,0
1528310549.017,0.977,39.551,54.199,7.324,50.293,0
1528310549.021,-2.441,37.109,53.711,3.418,62.500,0
1528310549.025,3.906,36.621,52.246,10.254,31.738,0
1528310549.029,4.883,36.621,47.852,5.859,7.812,0
1528310549.033,-1.953,40.527,47.852,0.488,9.277,0
1528310549.036,-4.883,39.062,52.734,-1.953,47.852,0
1528310549.040,7.812,35.645,59.082,2.441,90.332,0
1528310549.044,13.672,38.086,54.199,13.672,140.625,0
1528310549.048,6.348,33.691,49.316,14.648,90.332,0
1528310549.052,0.977,33.203,58.105,9.766,42.480,0
1528310549.049,8.789,35.645,59.570,15.625,38.574,0
1528310549.053,21.973,32.715,56.152,26.367,40.039,0
1528310549.057,28.809,34.668,50.293,22.949,36.621,0
1528310549.061,21.973,39.062,48.828,17.090,-8.301,0
1528310549.065,18.066,42.480,62.012,25.391,51.270,0
1528310549.069,26.367,40.527,63.965,32.227,109.375,0
1528310549.073,23.926,34.180,54.199,26.367,33.203,0
1528310549.076,14.160,34.668,48.828,16.602,-4.395,0
1528310549.080,11.719,38.574,45.410,10.742,54.688,0
1528310549.084,21.484,37.109,48.828,16.113,-7.812,0
1528310549.088,26.367,32.715,49.805,22.461,-1.465,0
1528310549.092,14.160,34.180,46.875,16.602,55.664,0
1528310549.110,9.766,36.133,43.457,8.301,39.551,0
1528310549.114,15.625,31.738,42.480,13.672,15.625,0
1528310549.118,24.414,36.133,46.875,23.438,-13.184,0
1528310549.122,23.926,40.527,49.316,17.090,-24.902,0
1528310549.126,9.766,35.645,46.387,3.906,38.086,0
1528310549.130,8.789,32.227,43.945,7.812,38.086,0
1528310549.134,22.461,28.809,42.480,9.277,-44.434,0
1528310549.137,17.578,30.273,43.945,-0.977,6.348,0
1528310549.141,4.395,32.227,42.969,-3.906,-17.578,0
1528310549.145,10.254,32.227,43.945,2.930,-12.207,0
1528310549.149,27.832,37.598,47.852,13.184,64.453,0
1528310549.153,31.738,41.504,44.434,14.160,74.707,0
1528310549.150,24.414,41.992,40.527,5.859,52.246,0
1528310549.154,24.902,40.527,43.457,12.207,-1.465,0
1528310549.158,31.250,39.551,51.758,24.902,42.480,0
1528310549.162,34.180,40.039,52.734,24.902,123.047,0
1528310549.166,29.785,37.598,51.270,23.926,70.312,0
1528310549.170,24.414,41.016,55.664,26.855,5.371,0
1528310549.174,21.973,35.645,52.734,23.926,39.551,0
1528310549.177,20.996,27.344,51.758,22.461,68.359,0
1528310549.181,13.184,28.320,54.688,22.461,85.938,0
1528310549.185,3.906,30.273,49.316,17.578,50.781,0
1528310549.189,14.648,34.180,51.270,17.090,12.207,0
1528310549.193,33.691,38.086,60.059,28.320,34.180,0
1528310549.190,29.785,33.691,52.246,24.902,60.059,0
1528310549.194,16.113,31.738,45.410,7.324,42.969,0
1528310549.198,13.672,28.320,47.852,3.906,41.504,0
1528310549.202,20.508,27.832,51.758,15.625,57.129,0
1528310549.206,28.809,30.762,47.852,21.484,17.578,0
1528310549.210,20.508,30.273,42.480,14.160,0.977,0
1528310549.214,8.301,30.273,47.363,5.859,20.020,0
1528310549.217,16.113,32.715,49.805,13.672,43.945,0
1528310549.221,25.879,39.551,50.781,19.043,44.434,0
1528310549.225,11.719,37.598,50.781,1.953,19.043,0
1528310549.229,-3.418,35.645,46.875,-3.906,33.203,0
1528310549.233,1.953,38.086,49.805,4.395,17.578,0
1528310549.250,7.812,38.574,51.270,11.230,-17.090,0
1528310549.254,2.930,38.574,48.340,4.883,15.625,0
1528310549.258,-0.977,40.039,49.805,-1.953,32.227,0
1528310549.262,8.789,40.527,54.688,9.766,30.273,0
1528310549.266,13.184,40.039,55.176,20.020,21.484,0
1528310549.270,11.230,48.828,58.105,24.414,45.410,0
1528310549.274,1.953,44.922,52.246,5.371,98.633,0
1528310549.277,-2.930,36.133,44.434,-1.953,21.973,0
1528310549.281,17.090,39.062,51.758,18.066,-13.184,0
1528310549.285,21.973,39.062,51.270,23.438,-7.812,0
1528310549.289,8.789,38.574,47.363,17.578,-7.324,0
1528310549.293,10.742,41.992,46.875,12.695,-26.855,0
1528310549.310,20.996,45.410,54.688,19.043,21.973,0
1528310549.314,24.414,43.457,57.129,18.066,97.656,0
1528310549.318,14.648,41.504,45.898,4.883,0.488,0
1528310549.322,5.859,39.062,45.898,-2.441,26.367,0
1528310549.326,13.672,42.969,51.270,6.836,59.082,0
1528310549.330,27.344,46.387,51.270,19.531,30.762,0
1528310549.334,20.020,36.133,43.945,9.766,81.055,0
1528310549.337,5.371,32.715,45.410,2.930,98.145,0
1528310549.341,6.348,38.086,52.246,8.789,45.410,0
1528310549.345,17.578,38.574,41.016,18.066,-15.625,0
1528310549.349,23.438,38.574,43.945,24.902,-16.113,0
1528310549.353,10.254,39.551,56.641,18.066,-4.395,0
1528310549.330,0.977,36.621,47.363,9.766,3.418,0
1528310549.334,7.324,35.156,45.410,16.113,-19.043,0
1528310549.338,8.789,33.691,49.805,23.438,0.488,0
1528310549.342,0.488,32.227,49.805,15.625,-6.836,0
1528310549.346,-6.348,31.738,53.223,7.324,0.977,0
1528310549.350,3.906,29.297,51.758,23.438,54.688,0
1528310549.354,12.695,27.832,49.805,26.855,83.008,0
1528310549.357,7.812,32.715,45.410,12.207,72.266,0
1528310549.361,-2.441,35.156,40.527,1.953,19.043,0
1528310549.365,1.953,34.668,46.875,4.395,53.223,0
1528310549.369,16.602,36.621,49.316,14.160,92.285,0
1528310549.373,12.695,39.551,47.852,9.277,116.699,0
1528310549.387,5.859,40.039,39.551,5.371,77.637,0
1528310549.391,12.695,38.086,40.039,4.883,33.691,0
1528310549.395,18.066,38.086,51.270,7.812,55.664,0
1528310549.399,15.625,37.109,45.410,11.230,11.719,0
1528310549.403,2.930,34.668,38.086,3.906,-12.695,0
1528310549.407,6.836,36.621,44.434,6.836,-2.930,0
1528310549.411,21.484,41.992,51.270,20.020,23.438,0
1528310549.414,6.836,31.250,42.480,11.719,11.230,0
1528310549.418,-0.977,26.855,38.086,1.465,22.461,0
1528310549.422,9.277,35.645,41.016,7.324,30.273,0
1528310549.426,21.973,37.598,42.480,21.973,50.293,0
1528310549.430,35.156,39.551,42.480,33.691,96.191,0
1528310549.470,33.203,42.969,45.898,23.926,88.379,0
1528310549.474,23.926,40.527,48.828,14.648,47.363,0
1528310549.478,21.484,37.598,49.805,20.020,-12.695,0
1528310549.482,25.391,38.574,53.711,21.973,49.805,0
1528310549.486,24.414,39.062,50.781,20.020,90.820,0
1528310549.490,13.672,38.086,48.828,11.719,39.062,0
1528310549.494,8.301,38.574,48.340,8.789,16.602,0
1528310549.497,14.160,38.086,48.828,20.020,-11.719,0
1528310549.501,17.090,36.133,49.316,21.484,-46.875,0
1528310549.505,10.742,37.109,42.480,11.719,-39.062,0
1528310549.509,-1.953,35.156,45.898,0.977,10.254,1
1528310549.513,-2.930,36.621,54.199,5.371,32.715,0
1528310549.474,4.883,37.109,52.246,16.602,35.156,0
1528310549.478,-3.418,34.668,49.805,10.742,56.641,0
1528310549.482,-14.160,34.180,45.898,0.000,55.176,0
1528310549.486,-6.348,38.086,56.641,3.906,37.598,0
1528310549.490,1.465,42.969,63.965,18.555,13.672,0
1528310549.494,-13.672,32.227,45.410,6.836,45.898,0
1528310549.498,-26.367,24.414,38.574,-8.301,44.434,0
1528310549.501,-17.090,28.809,41.992,-5.371,6.348,0
1528310549.505,-0.977,33.203,43.945,2.441,1.465,0
1528310549.509,-1.465,29.785,43.945,1.953,19.531,0
1528310549.513,-4.883,29.785,41.992,-8.301,37.109,0
1528310549.517,1.465,33.203,48.828,-6.348,90.820,0
1528310549.530,10.742,31.738,48.340,4.883,97.168,0
1528310549.534,15.625,31.250,43.945,3.906,41.992,0
1528310549.538,6.348,31.250,40.527,-7.812,54.199,0
1528310549.542,6.348,31.250,39.062,-8.789,62.988,0
1528310549.546,23.438,35.156,45.898,7.812,31.738,0
1528310549.550,33.203,34.180,43.945,14.648,37.109,0
1528310549.554,28.320,41.992,41.016,5.859,65.918,0
1528310549.557,20.020,42.969,42.969,0.488,64.453,0
1528310549.561,15.137,32.227,42.480,0.000,48.828,0
1528310549.565,19.043,31.250,44.922,6.348,29.297,0
1528310549.569,21.973,31.738,44.922,14.160,-21.973,0
1528310549.573,12.695,28.809,41.016,8.301,-38.086,0
1528310549.570,14.160,28.809,42.480,14.648,21.484,0
1528310549.574,24.414,29.297,44.434,28.320,10.254,0
1528310549.578,21.484,33.203,49.316,22.949,16.602,0
1528310549.582,18.555,36.621,51.270,20.508,57.617,0
1528310549.586,16.113,34.668,47.363,16.113,78.613,0
1528310549.590,13.184,30.762,50.781,19.531,66.895,0
1528310549.594,11.719,24.414,48.340,18.066,20.508,0
1528310549.597,14.648,31.250,49.316,17.578,4.883,0
1528310549.601,8.301,33.203,53.223,15.137,2.441,0
1528310549.605,-0.488,24.414,43.945,10.742,0.000,0
1528310549.609,11.230,28.809,48.828,15.137,68.848,0
1528310549.613,7.324,31.250,53.711,11.719,79.102,0
1528310549.609,1.953,29.785,48.828,8.789,-20.508,0
1528310549.613,8.789,32.227,50.781,11.719,-6.836,0
1528310549.617,17.578,32.227,52.734,19.531,3.418,0
1528310549.621,16.113,28.809,50.293,20.020,-1.465,0
1528310549.625,2.930,26.367,50.781,13.672,27.832,0
1528310549.629,7.812,29.297,54.688,13.672,6.836,0
1528310549.633,18.555,32.227,56.152,21.484,9.766,0
1528310549.636,15.625,31.738,51.270,19.531,75.684,0
1528310549.640,9.766,36.133,49.316,9.766,94.727,0
1528310549.644,6.836,38.574,49.316,6.836,21.484,0
1528310549.648,13.672,37.598,48.828,15.625,-5.371,0
1528310549.652,24.414,39.062,46.387,24.902,20.020,0
1528310549.669,20.020,38.086,38.574,17.578,2.441,0
1528310549.673,19.043,39.062,38.574,15.625,-0.977,0
1528310549.677,29.785,48.340,51.270,33.203,67.383,0
1528310549.681,24.414,44.434,50.781,36.133,126.465,0
1528310549.685,19.043,34.668,37.109,22.461,47.852,0
1528310549.689,14.160,36.133,29.297,16.113,-40.527,0
1528310549.693,12.207,39.062,32.715,16.113,-21.973,0
1528310549.696,22.949,37.598,42.969,21.973,36.133,0
1528310549.700,22.461,35.645,43.457,21.973,26.367,0
1528310549.704,16.113,38.086,36.133,11.719,16.602,0
1528310549.708,17.090,38.086,34.180,17.578,16.113,0
1528310549.712,29.785,41.504,44.434,30.762,-12.695,0
1528310549.710,33.203,41.504,49.805,30.273,15.625,0
1528310549.714,26.855,40.527,46.387,26.855,37.598,0
1528310549.718,23.926,43.457,48.340,25.879,-16.113,0
1528310549.722,24.414,39.062,49.316,26.855,-13.184,0
1528310549.726,22.949,38.086,45.898,27.832,-3.418,0
1528310549.730,14.160,39.551,43.457,20.996,2.441,0
1528310549.734,10.742,38.574,42.969,15.625,14.160,0
1528310549.737,15.137,41.016,47.363,17.578,-5.859,0
1528310549.741,19.043,43.457,52.734,29.297,30.762,0
1528310549.745,22.461,43.457,44.434,24.902,42.480,0
1528310549.749,15.137,43.945,42.969,9.766,-0.977,0
1528310549.753,10.254,42.480,49.805,11.230,-16.602,0
1528310549.750,23.926,41.016,51.270,25.391,-31.738,0
1528310549.754,27.344,41.016,53.711,28.320,4.883,0
1528310549.758,22.461,41.016,51.758,18.066,55.176,0
1528310549.762,22.949,38.574,55.176,17.578,73.242,0
1528310549.766,29.297,37.598,57.129,24.902,60.547,0
1528310549.770,34.180,40.039,53.223,25.879,40.527,0
1528310549.774,28.320,40.039,57.129,20.508,1.465,0
1528310549.777,20.996,38.574,54.199,18.066,6.348,0
1528310549.781,21.973,37.109,54.199,17.578,69.824,0
1528310549.785,25.879,36.133,60.547,25.879,62.012,0
1528310549.789,19.043,39.062,55.176,26.855,-6.348,0
1528310549.793,11.719,38.574,51.270,15.625,19.531,0
1528310549.810,20.508,37.598,45.898,21.973,6.348,0
1528310549.814,26.855,38.086,44.922,26.367,-52.734,0
1528310549.818,18.066,37.109,48.828,15.625,22.949,0
1528310549.822,15.625,39.062,47.363,9.766,83.496,0
1528310549.826,20.996,39.062,53.711,16.113,87.891,0
1528310549.830,22.461,38.574,53.223,30.762,88.867,0
1528310549.834,15.625,40.527,50.293,30.762,58.105,0
1528310549.837,4.883,38.086,53.223,20.020,10.254,0
1528310549.841,-1.465,33.691,53.711,20.996,-4.883,0
1528310549.845,12.695,37.109,51.758,28.809,12.207,0
1528310549.849,23.438,38.086,49.805,35.156,27.344,0
1528310549.853,18.555,35.645,48.828,29.785,39.062,0
1528310549.850,13.672,37.109,49.805,20.996,20.508,0
1528310549.854,13.672,37.109,49.316,25.879,24.902,0
1528310549.858,20.996,37.109,47.363,28.320,42.969,0
1528310549.862,20.020,38.574,44.922,18.066,67.871,0
1528310549.866,16.113,40.527,43.945,11.230,42.969,0
1528310549.870,18.066,38.574,48.828,10.742,58.594,0
1528310549.874,29.785,35.156,51.758,15.625,61.523,0
1528310549.877,26.855,36.621,51.270,16.113,14.648,0
1528310549.881,9.766,37.598,46.875,10.254,7.324,0
1528310549.885,9.277,35.156,43.945,2.930,28.809,0
1528310549.889,19.043,33.203,47.852,6.348,24.902,0
1528310549.893,22.461,36.621,51.270,15.137,36.621,0
1528310549.888,23.438,44.434,58.594,19.531,49.805,0
1528310549.892,12.695,37.109,55.176,14.648,22.461,0
1528310549.896,9.277,31.250,51.758,14.160,75.684,0
1528310549.900,13.672,35.156,52.734,19.531,77.637,0
1528310549.904,4.395,36.133,47.852,17.090,26.367,0
1528310549.908,3.906,35.156,50.293,13.672,42.480,0
1528310549.912,12.695,33.691,54.688,20.996,84.473,0
1528310549.915,23.438,34.668,51.270,34.180,48.340,0
1528310549.919,21.973,37.109,46.875,28.320,-0.977,0
1528310549.923,8.301,36.621,46.875,13.672,-29.297,0
1528310549.927,9.766,34.668,50.293,11.719,-17.578,0
1528310549.931,22.461,35.156,52.246,21.973,76.172,0
1528310549.950,21.973,35.156,48.828,21.484,62.988,0
1528310549.954,12.207,36.133,48.340,13.184,3.906,0
1528310549.958,7.812,36.133,52.246,14.160,-15.137,0
1528310549.962,11.230,33.203,57.617,18.555,33.691,0
1528310549.966,14.648,33.691,57.129,20.996,108.887,0
1528310549.970,11.230,32.227,54.199,13.672,92.773,0
1528310549.974,6.348,28.809,54.199,5.859,55.176,0
1528310549.977,11.719,30.762,58.594,16.602,61.035,0
1528310549.981,21.484,29.297,62.988,22.461,94.727,0
1528310549.985,19.043,29.297,56.641,8.789,63.965,0
1528310549.989,10.254,36.133,46.875,3.906,-0.977,0
1528310549.993,12.207,35.156,51.758,9.766,-1.953,0
1528310549.990,23.438,30.762,59.570,20.020,19.043,0
1528310549.994,25.391,32.715,53.711,17.090,4.395,0
1528310549.998,8.301,34.180,47.852,5.371,-12.695,0
1528310550.002,5.371,36.133,48.828,7.324,-23.926,0
1528310550.006,13.672,37.598,51.758,15.625,-11.230,0
1528310550.010,5.371,33.203,46.875,15.137,8.789,0
1528310550.014,-4.395,35.645,45.410,8.301,39.551,0
1528310550.017,4.883,46.875,56.641,12.695,60.059,0
1528310550.021,10.742,45.410,50.293,21.973,-2.930,0
1528310550.025,5.859,37.598,37.598,17.578,-8.789,0
1528310550.029,2.441,39.062,39.062,11.230,34.668,0
1528310550.033,2.930,40.527,43.945,13.184,1.465,1
1528310550.050,10.742,39.062,50.781,19.043,26.855,0
1528310550.054,23.438,39.062,48.340,28.809,49.805,0
1528310550.058,19.043,38.086,49.805,23.438,92.285,0
1528310550.062,13.672,40.527,48.828,17.578,58.105,0
1528310550.066,18.555,42.969,44.434,21.973,-25.879,0
1528310550.070,30.273,43.457,46.875,23.438,29.785,0
1528310550.074,28.320,42.480,44.434,21.973,40.527,0
1528310550.077,19.043,41.016,38.574,12.207,-27.832,0
1528310550.081,14.648,36.133,39.062,1.465,-26.367,0
1528310550.085,20.508,37.598,49.805,14.648,17.578,0
1528310550.089,20.508,41.992,50.781,14.160,84.473,0
1528310550.093,2.930,37.598,41.504,-1.953,54.688,0
1528310550.090,3.418,37.598,43.945,-3.418,-5.371,0
1528310550.094,7.812,39.551,52.734,7.324,55.664,0
1528310550.098,10.254,37.598,50.293,14.648,38.574,0
1528310550.102,4.395,36.133,47.852,7.324,22.461,0
1528310550.106,2.930,37.598,49.805,8.789,61.035,0
1528310550.110,9.277,38.086,51.758,18.066,20.508,0
1528310550.114,17.578,37.109,52.734,20.996,35.645,0
1528310550.117,12.207,38.574,45.410,21.484,48.828,0
1528310550.121,0.000,41.992,46.875,12.207,15.625,0
1528310550.125,-0.488,41.504,51.758,7.324,9.766,0
1528310550.129,7.324,38.574,43.457,19.531,30.762,0
1528310550.133,8.789,37.598,37.598,16.602,1.465,0
1528310550.130,-4.883,37.598,42.480,3.906,-31.250,0
1528310550.134,-10.742,33.691,44.922,4.395,23.926,0
1528310550.138,9.766,39.062,48.828,20.996,20.996,0
1528310550.142,14.648,40.527,45.410,20.996,27.832,0
1528310550.146,-0.977,34.180,37.598,5.859,46.387,0
1528310550.150,2.441,34.668,42.480,3.906,33.203,0
1528310550.154,9.277,35.645,49.805,9.277,50.293,0
1528310550.157,14.648,35.156,49.316,16.113,47.363,0
1528310550.161,12.207,34.668,40.039,10.742,-11.230,0
1528310550.165,5.371,34.668,37.598,-0.488,-21.484,0
1528310550.169,15.137,37.598,52.734,12.207,48.340,0
1528310550.173,23.926,37.598,52.246,21.484,47.852,0
1528310550.189,11.719,29.297,43.945,3.418,78.613,0
1528310550.193,5.371,32.227,41.992,3.906,56.641,0
1528310550.197,5.371,27.344,42.480,4.883,45.410,0
1528310550.201,19.043,29.785,46.387,13.184,30.273,0
1528310550.205,28.809,39.062,44.434,16.602,-6.348,0
1528310550.209,11.719,34.180,38.574,3.906,14.160,0
1528310550.213,4.395,33.203,38.574,2.930,11.230,0
1528310550.216,18.555,35.156,41.992,8.789,51.270,0
1528310550.220,28.320,44.922,54.199,18.066,84.473,0
1528310550.224,17.090,48.828,54.688,19.043,35.156,0
1528310550.228,10.254,37.598,49.316,12.695,2.441,0
1528310550.232,15.625,33.203,50.293,17.090,24.414,0
1528310550.230,19.531,34.668,49.316,22.949,31.738,0
1528310550.234,18.066,38.086,50.781,20.020,62.012,0
1528310550.238,7.812,38.574,47.363,16.113,63.965,0
1528310550.242,14.160,37.109,47.852,18.066,-19.531,0
1528310550.246,28.809,40.039,50.781,29.785,18.066,0
1528310550.250,22.949,41.992,50.293,31.250,40.527,0
1528310550.254,11.719,37.598,53.711,22.949,23.926,0
1528310550.257,10.742,34.668,53.223,21.973,41.016,0
1528310550.261,25.391,38.086,56.641,32.227,35.645,0
1528310550.265,31.738,41.504,63.965,36.133,-20.996,0
1528310550.269,14.648,32.715,50.293,15.625,-69.336,0
1528310550.273,6.348,27.344,47.363,7.324,-19.043,0
1528310550.270,18.066,33.203,53.711,16.602,73.730,0
1528310550.274,24.414,35.156,49.316,18.066,82.031,0
1528310550.278,19.043,34.668,46.875,9.277,44.434,0
1528310550.282,13.184,34.668,48.828,4.395,70.801,0
1528310550.286,16.113,35.645,48.828,10.254,68.359,0
1528310550.290,20.020,35.645,48.828,17.090,-15.137,0
1528310550.294,12.207,34.180,52.246,9.277,2.930,0
1528310550.297,6.348,36.621,50.293,2.930,-3.418,0
1528310550.301,4.883,40.039,46.387,7.812,-41.992,0
1528310550.305,14.160,41.992,50.293,13.184,-6.348,0
1528310550.309,17.090,40.039,50.781,11.230,1.953,0
1528310550.313,6.348,37.109,47.852,6.836,22.461,0
1528310550.330,6.348,39.062,53.223,12.207,27.832,0
1528310550.334,11.719,39.551,47.363,16.602,0.977,0
1528310550.338,11.719,38.574,42.969,14.160,27.344,0
1528310550.342,5.371,38.574,43.457,5.371,22.461,0
1528310550.346,7.324,37.598,44.922,3.418,-2.441,0
1528310550.350,16.602,34.668,46.875,11.230,33.691,0
1528310550.354,20.508,35.156,43.945,17.578,51.758,0
1528310550.357,15.137,36.621,43.945,10.742,34.668,0
1528310550.361,9.277,34.180,47.363,1.953,81.055,0
1528310550.365,16.602,34.180,43.945,10.742,61.035,0
1528310550.369,21.973,37.598,46.875,20.020,67.871,0
1528310550.373,12.207,37.598,45.410,14.648,142.578,0
1528310550.370,11.230,41.992,44.922,10.742,86.426,0
1528310550.374,11.230,41.504,51.270,13.184,40.039,0
1528310550.378,14.160,33.691,47.852,12.207,113.281,0
1528310550.382,18.555,38.574,44.922,11.719,85.449,0
1528310550.386,6.836,39.551,43.457,8.301,24.414,0
1528310550.390,2.441,35.156,44.922,10.742,65.430,0
1528310550.394,14.160,38.086,49.316,17.578,89.844,0
1528310550.397,20.020,40.039,49.805,21.484,89.355,0
1528310550.401,15.137,38.574,48.340,20.996,76.660,0
1528310550.405,11.719,40.527,48.340,13.184,50.293,0
1528310550.409,12.207,35.645,42.969,11.230,58.105,0
1528310550.413,15.625,29.785,38.574,10.742,52.246,0
1528310550.410,6.348,34.180,41.504,-1.465,4.395,0
1528310550.414,0.000,39.062,45.898,0.488,-8.789,0
1528310550.418,5.859,30.273,42.480,6.836,-13.184,0
1528310550.422,16.602,29.785,41.504,11.719,-5.371,0
1528310550.426,16.602,35.645,45.410,13.184,38.574,0
1528310550.430,3.906,36.133,42.969,10.254,43.457,0
1528310550.434,13.184,37.109,41.992,19.531,-24.414,0
1528310550.437,23.438,35.156,48.340,30.762,-22.949,0
1528310550.441,20.508,33.691,52.246,30.762,81.055,0
1528310550.445,11.230,34.180,47.852,17.090,76.660,0
1528310550.449,2.441,33.203,48.340,14.648,55.176,0
1528310550.453,11.230,35.645,52.246,24.414,64.941,0
1528310550.470,16.113,35.645,51.270,21.973,42.480,0
1528310550.474,9.277,34.180,47.363,14.160,26.367,0
1528310550.478,7.324,32.715,47.363,7.324,19.531,0
1528310550.482,13.184,27.832,44.434,7.812,16.113,0
1528310550.486,22.461,32.227,43.945,20.996,31.250,0
1528310550.490,15.137,32.227,44.434,20.508,39.062,0
1528310550.494,6.836,31.250,37.598,11.230,28.320,0
1528310550.497,17.578,34.668,41.016,15.625,36.621,0
1528310550.501,27.344,34.180,50.781,30.273,56.152,0
1528310550.505,20.508,34.180,46.875,28.809,18.555,0
1528310550.509,7.812,34.668,46.387,14.160,-30.762,0
1528310550.513,2.930,32.715,46.387,11.230,-23.438,0
1528310550.510,16.602,37.109,42.969,18.555,-43.457,0
1528310550.514,18.555,41.992,44.434,16.602,19.043,0
1528310550.518,7.812,43.945,45.898,9.766,25.879,0
1528310550.522,3.418,43.945,48.340,8.789,-23.926,0
1528310550.526,15.625,39.551,48.340,16.602,51.758,0
1528310550.530,26.855,40.527,44.434,18.555,86.914,0
1528310550.534,15.137,42.969,41.016,12.695,54.199,0
1528310550.537,4.883,39.062,42.480,8.301,25.879,0
1528310550.541,13.184,41.016,50.781,14.160,-4.395,0
1528310550.545,14.160,40.039,45.898,19.531,-20.020,0
1528310550.549,13.184,41.504,38.574,14.648,18.066,0
1528310550.553,14.160,49.316,50.781,17.090,29.785,0
1528310550.549,3.906,39.062,49.805,18.555,-20.020,0
1528310550.553,10.742,30.273,45.410,22.949,18.066,0
1528310550.557,17.090,33.691,49.316,29.297,-0.977,0
1528310550.561,2.441,31.250,50.781,22.461,-15.137,0
1528310550.565,-2.441,28.809,49.316,20.020,-20.996,0
1528310550.569,10.254,30.273,55.176,32.227,-25.391,0
1528310550.573,12.207,28.320,58.594,31.250,46.387,0
1528310550.576,5.859,30.273,48.828,21.484,45.898,0
1528310550.580,10.254,32.715,41.992,12.207,-4.395,0
1528310550.584,18.555,33.203,52.734,14.648,14.160,0
1528310550.588,18.555,31.738,57.129,27.344,64.941,0
1528310550.592,15.625,32.715,49.316,22.461,58.594,0
1528310550.610,11.719,35.156,45.410,15.137,8.301,0
1528310550.614,18.066,35.156,46.387,19.531,42.480,0
1528310550.618,24.414,35.645,46.387,22.461,4.395,0
1528310550.622,19.043,33.691,46.387,12.207,-22.461,0
1528310550.626,14.160,35.156,46.875,8.789,-3.418,0
1528310550.630,13.672,34.180,43.945,13.672,-31.250,0
1528310550.634,18.066,34.668,40.527,13.184,-43.945,0
1528310550.637,24.414,41.504,49.316,12.695,7.324,0
1528310550.641,7.812,32.715,51.758,3.906,57.129,0
1528310550.645,-3.906,24.414,49.805,-1.953,62.012,0
1528310550.649,8.301,29.297,50.781,12.695,64.941,0
1528310550.653,14.160,30.273,45.898,19.043,46.387,0
1528310550.648,6.836,31.738,45.410,8.301,-34.668,0
1528310550.652,-2.441,34.668,51.758,5.371,40.527,0
1528310550.656,4.883,34.180,52.734,13.184,67.383,0
1528310550.660,11.230,33.203,51.758,19.531,44.922,0
1528310550.664,12.207,36.621,49.805,19.531,108.887,0
1528310550.668,9.766,38.574,48.828,13.184,92.285,0
1528310550.672,7.324,36.621,50.293,19.043,27.344,0
1528310550.675,26.367,37.109,54.199,28.320,26.855,1
1528310550.679,27.344,38.574,56.641,23.926,88.867,0
1528310550.683,10.254,41.016,50.781,18.555,59.082,0
1528310550.687,11.230,41.992,53.223,23.926,56.641,0
1528310550.691,23.438,40.527,61.035,27.344,42.480,0
1528310550.690,20.996,41.016,56.641,21.973,49.316,0
1528310550.694,6.836,37.109,48.828,5.371,71.777,0
1528310550.698,1.465,39.551,45.898,1.465,44.434,0
1528310550.702,13.672,42.969,48.828,11.719,67.871,0
1528310550.706,11.719,36.621,45.410,3.906,-16.113,0
1528310550.710,-7.324,36.133,40.039,-2.930,-36.133,0
1528310550.714,-4.883,36.621,43.945,4.395,43.945,0
1528310550.717,6.836,38.086,46.875,15.137,37.598,0
1528310550.721,16.602,41.504,44.922,21.973,48.340,0
1528310550.725,10.742,40.039,45.410,8.789,77.148,0
1528310550.729,11.230,44.922,50.293,9.766,9.766,0
1528310550.733,24.414,48.828,56.152,19.531,20.020,0
1528310550.749,25.391,36.621,43.945,19.043,80.566,0
1528310550.753,25.879,34.180,34.180,17.090,49.805,0
1528310550.757,20.996,36.133,41.016,13.184,41.504,0
1528310550.761,14.160,32.715,47.363,14.160,24.414,0
1528310550.765,28.809,34.668,50.781,24.414,-6.348,0
1528310550.769,34.180,37.109,49.316,27.832,5.859,0
1528310550.773,20.996,39.062,47.852,17.090,34.180,0
1528310550.776,18.066,39.551,52.246,13.672,-6.836,0
1528310550.780,22.949,39.551,60.547,20.996,43.457,0
1528310550.784,25.879,39.551,55.664,25.879,87.891,0
1528310550.788,15.625,35.156,47.852,20.020,46.875,0
1528310550.792,9.766,37.598,47.363,15.625,59.082,0
1528310550.790,14.160,36.621,53.711,19.531,64.941,0
1528310550.794,13.672,32.227,56.641,24.902,32.227,0
1528310550.798,10.254,33.203,50.781,19.531,-11.719,0
1528310550.802,-0.488,33.691,50.293,8.301,9.277,0
1528310550.806,1.953,34.180,52.734,11.719,37.598,0
1528310550.810,19.043,38.574,53.711,25.879,26.855,0
1528310550.814,14.160,38.086,51.758,21.484,18.066,0
1528310550.817,3.906,33.691,50.781,15.137,33.203,0
1528310550.821,9.766,31.250,54.688,19.043,18.066,0
1528310550.825,25.879,37.109,56.152,30.273,16.113,0
1528310550.829,26.855,41.504,55.176,26.367,52.246,0
1528310550.833,9.277,32.715,52.246,3.906,4.395,0
1528310550.830,4.883,30.762,51.758,0.000,15.137,0
1528310550.834,18.066,34.668,50.293,9.277,68.359,0
1528310550.838,23.438,34.668,47.852,16.113,18.066,0
1528310550.842,19.043,35.156,47.363,8.301,0.977,0
1528310550.846,18.555,36.133,47.363,9.277,-7.324,0
1528310550.850,25.879,35.645,47.852,25.879,16.113,0
1528310550.854,36.133,38.574,49.805,36.133,33.691,0
1528310550.857,36.133,42.480,52.246,32.227,30.762,0
1528310550.861,25.879,42.480,45.410,21.484,11.719,0
1528310550.865,21.484,40.527,48.340,19.531,-18.555,0
1528310550.869,28.809,35.156,52.734,26.855,1.953,0
1528310550.873,25.391,34.668,49.805,23.438,28.809,0
1528310550.890,14.648,36.133,44.434,14.648,54.199,0
1528310550.894,14.160,34.668,43.945,20.020,44.922,0
1528310550.898,26.855,36.621,47.852,25.879,27.344,0
1528310550.902,25.879,33.691,47.363,20.508,50.781,0
1528310550.906,13.184,37.109,49.316,16.602,91.309,0
1528310550.910,12.207,41.992,55.176,17.578,62.012,0
1528310550.914,9.766,31.738,49.316,7.812,55.664,0
1528310550.917,4.883,25.879,41.016,-2.930,13.672,0
1528310550.921,-1.465,27.832,44.922,-4.395,37.598,0
1528310550.925,-4.395,33.203,47.363,0.000,51.270,0
1528310550.929,6.348,36.133,45.410,11.719,-32.715,0
1528310550.933,16.113,35.156,46.387,16.113,-20.996,0
1528310550.930,18.555,38.574,47.852,12.207,22.461,0
1528310550.934,7.812,37.109,40.527,5.371,39.062,0
1528310550.938,5.859,35.645,37.598,3.418,-5.371,0
1528310550.942,23.926,38.086,44.922,16.602,12.207,0
1528310550.946,21.973,39.062,45.898,19.531,67.383,0
1528310550.950,14.648,40.039,38.086,14.160,-15.137,0
1528310550.954,18.066,35.156,39.062,12.695,-56.641,0
1528310550.957,30.273,33.203,44.434,22.461,-35.156,0
1528310550.961,39.062,37.598,45.898,27.832,-27.344,0
1528310550.965,27.344,37.598,41.992,22.461,8.301,0
1528310550.969,22.949,36.621,43.945,18.555,18.555,0
1528310550.973,31.738,37.598,49.805,21.973,15.137,0
1528310550.970,39.551,41.504,47.363,27.344,3.906,0
1528310550.974,33.203,41.504,41.504,21.484,9.766,0
1528310550.978,22.461,39.551,37.598,10.742,16.602,0
1528310550.982,27.344,41.504,46.387,13.184,38.086,0
1528310550.986,35.645,40.527,50.293,25.879,44.922,0
1528310550.990,31.738,38.086,47.363,23.926,43.457,0
1528310550.994,21.484,38.574,50.293,20.020,11.230,0
1528310550.997,20.020,40.527,54.688,22.461,2.441,0
1528310551.001,20.996,39.551,58.594,20.020,60.547,0
1528310551.005,16.602,42.969,60.547,15.625,111.816,0
1528310551.009,4.883,45.410,53.223,6.348,105.957,0
1528310551.013,-2.930,35.645,49.316,-2.441,17.090,0
1528310551.030,9.277,34.180,49.805,7.324,12.207,0
1528310551.034,14.648,38.086,47.363,15.137,43.945,0
1528310551.038,13.672,39.062,50.781,13.672,19.531,0
1528310551.042,7.324,38.574,52.246,11.719,20.020,0
1528310551.046,4.395,31.738,47.363,16.602,26.855,0
1528310551.050,13.184,28.320,46.387,26.855,28.809,0
1528310551.054,12.207,33.203,46.387,17.090,53.223,0
