timestamps,TP9,AF7,AF8,TP10,Right AUX,Marker0
1528296149.929,82.520,87.891,51.270,53.223,46.875,2
1528296149.933,90.820,69.824,53.711,54.688,74.219,0
1528296149.937,82.520,68.359,48.828,43.457,35.156,0
1528296149.941,83.984,83.496,48.340,39.062,21.973,0
1528296149.945,73.242,88.867,49.316,50.293,39.062,0
1528296149.949,64.453,76.172,50.293,64.941,-2.441,0
1528296149.953,71.289,59.082,50.293,59.570,-2.441,0
1528296149.956,79.102,49.805,47.852,51.270,11.719,0
1528296149.960,99.121,47.363,45.898,53.711,35.156,0
1528296149.964,105.957,43.945,47.852,60.059,69.336,0
1528296149.968,96.680,43.457,49.316,58.594,17.578,0
1528296149.972,111.816,40.039,51.270,49.316,14.648,0
1528296149.991,121.582,35.645,49.316,42.969,63.477,0
1528296149.995,122.070,32.715,39.551,49.316,40.527,0
1528296149.999,127.930,27.344,34.180,54.199,53.223,0
1528296150.003,132.324,29.785,38.086,45.898,59.570,0
1528296150.007,130.859,35.645,44.434,45.898,35.156,0
1528296150.011,117.188,36.133,45.410,60.059,23.926,0
1528296150.015,119.629,30.273,46.387,70.312,53.223,0
1528296150.018,139.160,31.738,47.852,68.359,69.824,0
1528296150.022,140.625,20.996,42.969,56.152,-4.883,0
1528296150.026,138.184,15.137,39.062,57.129,-25.391,0
1528296150.030,140.137,26.855,42.969,66.406,51.270,0
1528296150.034,144.043,39.062,49.316,57.617,95.703,0
1528296150.029,150.391,38.086,48.340,46.387,62.500,0
1528296150.033,139.160,28.809,46.387,51.270,48.340,0
1528296150.037,137.207,28.320,49.805,62.988,92.773,0
1528296150.041,149.902,29.297,41.992,59.570,15.625,0
1528296150.045,134.766,18.066,37.598,47.363,-7.324,0
1528296150.049,102.539,12.695,45.898,52.246,36.133,0
1528296150.053,100.098,10.254,51.270,64.941,31.738,0
1528296150.056,115.234,3.418,51.270,68.359,50.781,0
1528296150.060,96.191,2.930,46.387,58.105,23.438,0
1528296150.064,78.125,5.371,43.945,49.805,-8.301,0
1528296150.068,95.215,3.906,42.480,56.152,-3.418,0
1528296150.072,104.492,6.836,43.457,65.430,21.484,0
1528296150.090,92.773,2.441,40.039,59.082,29.297,0
1528296150.094,62.988,0.000,41.016,50.293,38.086,0
1528296150.098,48.340,3.418,45.898,49.316,51.270,0
1528296150.102,71.777,2.930,45.410,54.199,55.664,0
1528296150.106,70.801,5.371,46.387,61.523,56.152,0
1528296150.110,35.645,6.836,44.922,56.152,38.574,0
1528296150.114,18.066,9.766,42.969,44.434,33.203,0
1528296150.117,31.738,11.230,40.527,51.270,21.484,0
1528296150.121,44.434,9.766,32.715,51.270,18.066,0
1528296150.125,19.531,7.812,36.621,40.527,37.109,0
1528296150.129,-3.418,12.695,42.480,41.016,22.949,0
1528296150.133,16.113,13.672,32.227,50.781,9.766,0
1528296150.130,39.062,13.184,31.738,58.594,31.738,0
1528296150.134,24.902,17.578,40.039,53.711,49.805,0
1528296150.138,-4.883,3.418,38.574,41.504,19.043,0
1528296150.142,-4.395,0.000,38.086,45.898,-13.672,0
1528296150.146,27.344,17.090,41.992,62.988,-22.461,0
1528296150.150,19.043,13.184,47.852,59.082,-28.320,0
1528296150.154,-25.391,7.324,41.992,50.781,30.762,0
1528296150.157,-34.180,16.113,36.621,50.781,26.855,0
1528296150.161,-4.883,22.461,40.527,60.059,-10.742,0
1528296150.165,-3.906,21.484,44.922,62.988,0.977,0
1528296150.169,-42.969,19.043,41.504,47.852,-5.859,0
1528296150.173,-50.293,16.602,37.598,41.504,16.602,0
1528296150.169,-17.578,13.672,37.598,48.340,27.344,0
1528296150.173,8.789,16.113,28.320,55.664,6.348,0
1528296150.177,-9.277,13.672,27.344,49.316,13.672,0
1528296150.181,-43.945,7.324,38.086,39.551,-39.551,0
1528296150.185,-21.484,8.789,40.527,50.293,-61.035,0
1528296150.189,17.578,13.672,40.039,62.500,31.250,0
1528296150.193,2.441,15.625,39.062,53.223,58.105,0
1528296150.196,-16.113,10.742,37.109,39.551,23.926,0
1528296150.200,-14.648,12.207,37.598,41.016,57.617,0
1528296150.204,10.742,14.648,39.062,49.316,62.988,0
1528296150.208,18.555,12.207,35.645,50.781,-9.277,0
1528296150.212,-5.859,13.672,33.203,44.922,-19.043,0
1528296150.227,-3.906,12.695,34.668,40.039,31.250,0
1528296150.231,18.555,0.977,37.109,48.828,10.742,0
1528296150.235,28.320,6.836,37.109,50.781,-6.836,0
1528296150.239,3.418,20.996,34.668,40.527,-36.621,0
1528296150.243,-18.555,25.391,33.691,41.016,-3.418,0
1528296150.247,3.906,25.879,36.621,46.875,55.176,0
1528296150.251,25.879,18.066,39.551,46.387,45.898,0
1528296150.254,1.465,17.578,34.180,33.203,48.340,0
1528296150.258,-19.531,22.461,29.785,29.785,-0.977,0
1528296150.262,3.418,20.996,29.297,41.016,24.902,0
1528296150.266,31.250,18.555,33.691,46.387,54.199,0
1528296150.270,16.602,13.672,32.715,44.922,49.316,0
1528296150.269,-14.160,12.207,34.180,37.598,28.320,0
1528296150.273,-10.742,14.160,37.598,36.133,27.832,0
1528296150.277,22.461,14.160,31.738,47.363,48.340,0
1528296150.281,23.438,9.766,29.785,47.363,89.355,0
1528296150.285,-12.695,0.977,34.180,40.527,55.664,0
1528296150.289,-24.902,-0.977,36.133,41.016,29.297,0
1528296150.293,9.277,4.395,36.133,47.852,83.496,0
1528296150.296,32.715,5.371,34.180,53.711,68.359,0
1528296150.300,9.277,4.883,34.668,41.016,32.227,0
1528296150.304,-13.672,2.441,32.227,32.715,25.391,0
1528296150.308,-4.883,4.395,30.762,45.898,15.137,0
1528296150.312,23.438,5.859,31.738,52.246,41.992,0
1528296150.309,20.020,-11.719,30.273,43.457,19.531,0
1528296150.313,0.000,-8.301,29.297,36.133,-20.996,0
1528296150.317,10.742,7.812,28.320,41.016,16.113,0
1528296150.321,36.133,13.672,28.320,50.293,101.562,0
1528296150.325,32.227,19.043,30.762,41.504,59.570,0
1528296150.329,0.000,18.066,33.691,33.203,1.953,0
1528296150.333,-4.883,18.066,31.738,39.062,66.895,0
1528296150.336,39.062,15.137,29.297,52.246,55.664,0
1528296150.340,51.270,7.324,33.691,53.223,71.289,0
1528296150.344,9.277,2.441,34.180,34.180,-19.531,0
1528296150.348,-13.184,7.324,26.367,26.367,-69.824,0
1528296150.352,10.742,20.996,23.926,39.062,12.695,0
1528296150.369,38.574,27.832,19.043,44.922,39.551,0
1528296150.373,15.137,27.344,20.020,36.621,45.898,0
1528296150.377,0.977,20.996,25.879,32.227,7.812,0
1528296150.381,30.762,18.555,23.926,42.480,-20.020,0
1528296150.385,53.711,20.508,24.902,52.246,42.969,0
1528296150.389,28.809,22.461,30.273,50.781,44.922,0
1528296150.393,-11.230,21.484,34.180,34.668,-18.555,0
1528296150.396,-4.395,19.043,32.715,30.762,-23.438,0
1528296150.400,49.316,4.395,32.227,49.316,-1.953,0
1528296150.404,46.387,-1.465,35.645,48.828,49.805,0
1528296150.408,-0.977,13.672,33.203,34.668,69.336,0
1528296150.412,-4.883,15.625,28.320,33.691,34.668,0
1528296150.409,33.691,12.695,27.344,39.551,31.250,0
1528296150.413,49.805,18.066,29.785,41.992,20.996,0
1528296150.417,17.090,21.973,30.762,34.180,-25.391,0
1528296150.421,10.742,23.438,29.297,25.391,1.465,0
1528296150.425,44.434,20.508,31.250,39.062,49.316,0
1528296150.429,65.430,20.996,33.691,47.852,38.574,0
1528296150.433,38.574,22.949,26.367,35.645,14.160,0
1528296150.436,5.859,20.996,19.531,26.855,-20.508,0
1528296150.440,10.254,17.090,20.996,35.645,34.180,0
1528296150.444,37.598,16.602,22.949,47.852,77.637,0
1528296150.448,17.090,20.508,24.902,33.691,46.387,0
1528296150.452,-9.277,19.531,24.414,20.996,55.664,0
1528296150.449,12.695,11.230,21.973,26.855,91.309,0
1528296150.453,49.805,12.207,18.555,43.457,56.152,0
1528296150.457,46.875,11.230,18.066,45.898,-26.367,0
1528296150.461,12.695,13.184,27.344,28.320,-27.832,0
1528296150.465,0.977,24.414,31.738,25.879,-9.766,0
1528296150.469,19.531,32.715,29.785,35.645,11.719,0
1528296150.473,33.691,27.832,28.320,38.086,49.316,0
1528296150.476,5.371,17.578,26.855,27.344,23.438,0
1528296150.480,-23.926,16.602,31.250,19.531,19.043,0
1528296150.484,1.465,21.484,33.203,29.297,13.672,0
1528296150.488,40.527,19.043,30.762,41.016,51.758,0
1528296150.492,6.836,19.531,32.715,29.297,92.773,0
1528296150.509,-29.785,22.461,34.668,17.578,34.668,0
1528296150.513,-8.789,22.461,31.738,21.484,-2.930,0
1528296150.517,32.227,20.508,33.203,33.203,35.645,0
1528296150.521,28.809,17.090,38.086,26.855,97.168,0
1528296150.525,-12.695,19.043,33.691,15.137,81.543,0
1528296150.529,-19.043,20.996,31.738,21.973,7.324,0
1528296150.533,16.602,18.555,37.109,35.645,37.109,0
1528296150.536,33.691,20.508,38.086,39.062,13.672,0
1528296150.540,14.648,21.973,34.668,29.785,-10.254,0
1528296150.544,-0.488,19.531,34.668,23.926,41.992,0
1528296150.548,31.250,18.066,29.297,34.668,24.414,0
1528296150.552,51.270,15.625,22.461,43.945,42.480,0
1528296150.549,16.113,14.160,25.879,34.668,101.562,0
1528296150.553,-8.301,16.602,36.133,23.438,92.773,0
1528296150.557,14.648,14.648,37.109,30.273,46.875,0
1528296150.561,49.316,19.531,31.250,38.574,29.297,0
1528296150.565,31.250,32.227,32.715,30.273,45.410,0
1528296150.569,-3.906,36.621,34.668,24.902,51.758,0
1528296150.573,5.371,34.668,27.832,28.809,35.156,0
1528296150.576,44.434,32.715,27.344,39.062,63.477,0
1528296150.580,45.410,26.855,35.156,37.598,84.961,0
1528296150.584,5.371,22.461,43.457,29.297,43.945,0
1528296150.588,-20.996,27.344,43.457,27.832,38.086,0
1528296150.592,10.742,30.273,35.645,33.691,26.367,0
1528296150.589,33.691,24.902,38.086,35.156,33.691,0
1528296150.593,-2.930,20.508,41.016,23.926,38.086,0
1528296150.597,-16.602,22.461,39.062,22.949,71.777,0
1528296150.601,16.602,19.043,36.621,32.227,68.848,0
1528296150.605,41.992,14.648,36.621,36.133,33.691,0
1528296150.609,17.578,22.949,36.621,27.344,17.578,0
1528296150.613,-4.395,31.738,37.598,21.484,7.324,0
1528296150.616,15.137,31.738,37.598,34.668,-2.441,0
1528296150.620,35.156,29.785,38.574,41.504,-26.367,0
1528296150.624,25.391,27.832,41.504,29.297,21.484,0
1528296150.628,-2.930,20.020,37.109,18.555,38.574,0
1528296150.632,-2.930,18.066,35.156,24.414,-3.418,0
1528296150.649,40.527,26.367,37.109,38.086,10.254,0
1528296150.653,43.457,24.902,34.180,34.668,18.555,0
1528296150.657,-1.953,20.020,33.691,19.043,31.250,0
1528296150.661,-3.906,19.531,34.180,17.578,12.695,0
1528296150.665,43.457,25.391,28.320,35.156,24.902,0
1528296150.669,56.641,25.391,28.320,44.434,68.848,0
1528296150.673,11.230,18.066,37.598,31.738,27.832,0
1528296150.676,-7.812,18.555,39.062,22.949,-41.992,0
1528296150.680,30.762,25.391,34.668,38.086,-28.809,0
1528296150.684,60.059,28.320,32.227,44.434,54.688,0
1528296150.688,35.156,20.996,36.621,32.715,29.297,0
1528296150.692,2.930,12.207,42.969,25.879,-5.859,0
1528296150.689,18.066,18.066,33.203,31.738,65.430,0
1528296150.693,45.898,22.949,29.297,38.574,54.199,0
1528296150.697,23.926,24.414,35.156,28.809,13.672,0
1528296150.701,-10.254,22.949,21.973,21.484,29.785,0
1528296150.705,-6.836,21.484,19.531,22.949,46.387,0
1528296150.709,32.715,22.461,28.320,32.715,48.828,0
1528296150.713,42.480,25.879,32.715,36.133,24.902,0
1528296150.716,8.301,14.648,30.762,18.066,49.805,0
1528296150.720,5.371,3.418,25.879,13.184,63.477,0
1528296150.724,39.062,14.648,35.156,35.156,-7.812,0
1528296150.728,51.758,19.043,37.598,42.480,21.484,0
1528296150.732,24.414,20.996,36.133,27.832,10.254,0
1528296150.729,5.859,27.832,35.645,21.973,-41.992,0
1528296150.733,30.762,20.020,22.461,31.250,4.883,0
1528296150.737,57.617,16.113,20.020,39.551,2.930,0
1528296150.741,39.551,22.949,27.344,33.203,1.953,0
1528296150.745,10.742,25.391,31.738,28.809,37.598,0
1528296150.749,14.160,19.531,32.227,37.598,-29.785,0
1528296150.753,49.805,13.184,26.367,47.852,-10.742,0
1528296150.756,44.922,18.555,23.926,42.480,37.598,0
1528296150.760,-0.488,27.344,30.762,29.297,0.000,0
1528296150.764,5.371,28.320,30.273,24.902,36.133,0
1528296150.768,53.223,27.832,26.855,36.621,73.242,0
1528296150.772,63.477,29.785,27.832,36.133,52.246,0
1528296150.789,24.902,25.391,29.297,24.414,53.711,0
1528296150.793,3.906,21.973,28.809,21.484,45.410,0
1528296150.797,34.668,25.391,23.926,29.785,11.719,0
1528296150.801,59.082,26.367,22.461,33.691,8.789,0
1528296150.805,34.180,23.438,27.344,22.461,31.738,0
1528296150.809,4.883,17.578,29.297,18.066,34.180,0
1528296150.813,12.695,14.160,27.344,25.879,46.875,0
1528296150.816,47.852,12.695,24.414,32.227,70.801,0
1528296150.820,42.480,15.625,24.902,27.344,66.406,0
1528296150.824,3.418,17.578,26.367,19.531,11.230,0
1528296150.828,7.812,13.672,27.344,23.438,17.090,0
1528296150.832,50.781,12.207,28.809,37.598,40.527,0
1528296150.829,50.781,12.207,28.809,36.621,22.949,0
1528296150.833,0.977,13.672,27.832,25.391,-22.949,0
1528296150.837,-22.461,17.578,31.250,29.785,28.320,0
1528296150.841,23.926,20.508,28.320,44.434,35.645,0
1528296150.845,53.223,20.996,24.902,48.340,46.387,0
1528296150.849,17.578,20.996,29.785,35.645,89.844,0
1528296150.853,-11.230,19.043,29.297,27.344,22.949,0
1528296150.856,25.391,20.996,24.414,40.527,56.641,0
1528296150.860,60.547,15.625,27.832,46.387,70.801,0
1528296150.864,15.137,17.090,34.180,30.273,24.414,0
1528296150.868,-19.531,23.926,34.180,18.555,33.691,0
1528296150.872,15.137,21.484,27.344,29.297,18.066,0
1528296150.867,55.176,24.414,21.973,45.898,18.555,0
1528296150.871,41.504,21.484,22.949,34.668,18.555,0
1528296150.875,-6.348,9.277,24.414,19.531,60.547,0
1528296150.879,-2.930,15.625,25.879,24.902,65.918,0
1528296150.883,41.992,27.832,27.832,38.574,31.738,0
1528296150.887,37.109,26.855,24.414,35.156,15.137,0
1528296150.891,3.906,24.902,20.996,16.113,6.836,0
1528296150.894,0.000,26.855,21.973,14.648,9.766,0
1528296150.898,35.156,28.809,22.461,29.297,-22.461,0
1528296150.902,60.547,22.949,29.297,32.227,15.625,0
1528296150.906,18.066,21.973,31.250,23.438,57.617,0
1528296150.910,-18.066,26.855,25.879,19.531,23.438,0
1528296150.929,12.207,21.973,25.391,30.762,14.648,0
1528296150.933,44.434,16.602,26.855,41.992,9.766,0
1528296150.937,19.043,20.020,29.785,35.156,-18.066,0
1528296150.941,-14.648,15.625,30.762,26.367,8.789,0
1528296150.945,6.836,13.184,25.391,33.203,6.348,0
1528296150.949,48.340,21.484,22.461,45.410,-0.977,0
1528296150.953,20.508,27.344,28.320,33.691,9.766,0
1528296150.956,-21.973,27.344,28.809,12.695,9.766,0
1528296150.960,-9.766,25.391,25.391,16.602,34.668,0
1528296150.964,40.527,30.273,22.461,34.668,21.973,0
1528296150.968,55.176,20.508,22.949,39.062,-11.719,0
1528296150.972,14.160,15.625,27.344,25.391,9.277,0
1528296150.969,3.418,31.738,31.250,19.531,33.691,0
1528296150.973,52.246,35.156,30.762,32.227,-11.719,0
1528296150.977,74.219,32.715,31.738,40.527,-24.414,0
1528296150.981,29.297,35.645,33.203,28.809,16.602,0
1528296150.985,-4.883,33.203,31.250,20.020,10.742,0
1528296150.989,24.414,33.203,31.250,28.320,30.273,0
1528296150.993,69.824,30.273,31.738,37.598,51.758,0
1528296150.996,51.758,23.438,33.691,32.715,62.012,0
1528296151.000,12.207,26.855,34.180,24.414,66.895,0
1528296151.004,6.348,32.715,31.738,28.320,35.156,0
1528296151.008,51.270,32.227,32.227,41.504,49.316,0
1528296151.012,62.500,30.273,33.203,39.062,53.711,0
1528296151.009,8.789,30.762,35.156,24.902,-1.465,0
1528296151.013,-10.742,29.297,36.133,26.855,23.438,0
1528296151.017,31.250,25.391,34.180,40.527,25.391,0
1528296151.021,55.664,23.926,34.668,42.480,3.906,0
1528296151.025,14.648,26.855,35.645,31.738,19.043,0
1528296151.029,-22.461,23.926,37.109,24.902,51.758,0
1528296151.033,15.625,14.648,45.410,37.598,27.344,0
1528296151.036,52.246,12.695,39.062,47.852,27.832,0
1528296151.040,17.090,13.184,30.762,33.203,25.391,0
1528296151.044,-11.719,19.531,33.691,21.484,20.508,0
1528296151.048,9.277,25.879,36.621,30.762,85.938,0
1528296151.052,53.223,26.855,40.527,45.410,54.688,0
1528296151.069,34.668,28.320,42.969,35.645,-28.809,0
1528296151.073,-0.977,27.344,43.945,21.484,-26.367,0
1528296151.077,17.578,25.391,41.504,26.855,-21.484,0
1528296151.081,63.477,27.344,38.086,43.457,-16.602,0
1528296151.085,62.012,28.320,36.621,41.992,14.160,0
1528296151.089,7.324,28.320,37.109,23.438,39.551,0
1528296151.093,-22.949,29.785,32.715,14.160,31.250,0
1528296151.096,36.133,30.273,24.902,26.367,23.438,0
1528296151.100,73.242,29.785,27.832,35.645,87.891,0
1528296151.104,20.508,28.809,32.715,22.461,80.566,0
1528296151.108,-13.184,25.879,32.715,14.648,32.227,0
1528296151.112,21.484,20.020,29.297,27.832,15.625,0
1528296151.110,64.941,18.555,26.855,40.527,45.410,0
1528296151.114,24.902,24.414,28.809,26.367,50.293,0
1528296151.118,-23.438,26.367,33.203,18.555,13.184,0
1528296151.122,-1.465,24.414,37.598,29.785,-21.484,0
1528296151.126,50.781,28.320,37.598,42.480,28.320,0
1528296151.130,42.480,32.715,32.715,36.133,56.641,0
1528296151.134,0.977,36.621,31.250,23.926,23.926,0
1528296151.137,-2.930,32.227,33.691,23.438,-21.973,0
1528296151.141,34.668,26.367,35.156,38.574,14.648,0
1528296151.145,31.250,26.367,36.133,42.969,23.926,0
1528296151.149,-15.137,27.344,35.156,26.855,8.789,0
1528296151.153,-20.996,30.273,33.691,25.879,12.207,0
1528296151.150,27.344,27.344,31.250,40.527,45.898,0
1528296151.154,58.105,24.902,33.203,47.852,48.340,0
1528296151.158,18.066,31.250,37.598,32.715,-19.531,0
1528296151.162,-14.160,34.668,36.621,18.066,-38.086,0
1528296151.166,20.996,29.297,34.668,28.320,36.621,0
1528296151.170,63.477,30.762,40.527,46.387,64.453,0
1528296151.174,30.273,33.203,41.016,35.156,15.625,0
1528296151.177,-13.184,28.809,41.016,22.461,-20.508,0
1528296151.181,-4.883,27.832,41.992,22.461,-54.688,0
1528296151.185,39.551,32.227,38.086,24.902,37.109,0
1528296151.189,33.691,36.133,36.621,21.484,45.410,0
1528296151.193,-24.414,39.062,36.133,-2.441,23.438,0
1528296151.209,-38.086,46.387,36.133,-7.324,85.449,0
1528296151.213,4.883,49.805,27.344,0.488,52.246,0
1528296151.217,-0.488,44.434,29.297,-12.207,58.594,0
1528296151.221,-48.828,47.363,38.086,-21.484,84.961,0
1528296151.225,-82.031,59.570,33.691,-45.410,3.418,0
1528296151.229,-79.590,64.453,28.320,-71.777,-35.156,0
1528296151.233,-60.547,65.918,28.809,-78.125,-35.645,0
1528296151.236,-97.656,66.895,28.809,-101.562,-14.648,0
1528296151.240,-145.020,68.359,27.832,-122.070,-16.602,0
1528296151.244,-128.906,63.477,21.484,-124.512,-12.207,0
1528296151.248,-84.961,70.801,12.207,-120.605,34.180,0
1528296151.252,-98.633,76.660,11.230,-130.859,21.973,0
1528296151.249,-138.184,75.684,9.766,-141.113,72.754,0
1528296151.253,-133.789,79.590,2.930,-134.277,90.820,0
1528296151.257,-70.312,85.449,-1.465,-106.445,36.133,0
1528296151.261,-62.500,83.008,1.953,-99.609,12.695,0
1528296151.265,-100.586,81.055,3.906,-101.562,1.465,0
1528296151.269,-95.703,90.820,1.953,-84.473,17.578,0
1528296151.273,-37.598,83.496,0.488,-52.246,33.203,0
1528296151.276,3.906,69.824,-6.348,-31.738,32.227,0
1528296151.280,-30.762,59.082,-2.441,-38.086,32.227,0
1528296151.284,-65.918,53.711,11.719,-40.039,46.875,0
1528296151.288,-22.949,44.922,12.695,-14.648,21.484,0
1528296151.292,35.156,39.062,9.766,13.672,-5.859,0
1528296151.289,11.719,37.598,17.090,10.254,36.133,0
1528296151.293,-23.926,36.133,15.625,1.953,46.387,0
1528296151.297,6.348,34.668,13.184,20.020,51.758,0
1528296151.301,67.383,27.832,20.508,43.457,51.758,0
1528296151.305,61.035,20.996,18.555,42.969,3.418,0
1528296151.309,11.230,20.996,10.742,34.180,14.160,0
1528296151.313,15.625,21.484,7.812,39.062,30.273,0
1528296151.316,65.918,19.531,15.625,58.594,39.062,0
1528296151.320,82.031,22.461,33.203,63.965,96.680,0
1528296151.324,44.434,28.809,39.551,49.805,20.996,0
1528296151.328,13.672,34.180,33.203,41.992,2.441,0
1528296151.332,58.594,15.625,35.156,56.641,39.062,0
1528296151.349,96.680,-2.441,37.109,68.848,11.719,0
1528296151.353,58.105,5.859,24.414,57.617,6.836,0
1528296151.357,19.043,23.926,22.461,51.270,19.531,0
1528296151.361,46.875,26.367,32.227,62.500,-12.207,0
1528296151.365,93.262,13.672,31.250,70.801,24.902,0
1528296151.369,46.875,20.508,32.227,60.059,32.227,0
1528296151.373,-8.789,35.645,34.180,44.434,-23.438,0
1528296151.376,22.461,35.645,33.203,50.293,26.855,0
1528296151.380,81.055,33.691,32.227,68.848,59.570,0
1528296151.384,77.148,32.715,32.227,70.801,36.621,0
1528296151.388,27.832,34.180,35.645,56.641,14.648,0
1528296151.392,25.879,30.762,36.133,51.758,18.066,0
1528296151.388,87.891,31.250,32.227,65.918,9.277,0
1528296151.392,99.121,30.762,28.809,64.453,56.641,0
1528296151.396,46.387,27.832,27.832,49.805,62.988,0
1528296151.400,19.043,25.879,32.227,46.387,2.441,0
1528296151.404,58.105,14.648,34.180,57.129,16.113,0
1528296151.408,88.867,13.672,35.645,65.430,58.594,0
1528296151.412,45.898,26.855,35.156,49.805,103.027,0
1528296151.415,15.625,27.832,31.738,41.504,34.668,0
1528296151.419,51.758,24.902,35.645,59.082,39.062,0
1528296151.423,84.473,25.391,36.621,66.406,85.449,0
1528296151.427,50.293,21.973,34.180,50.781,64.941,0
1528296151.431,8.301,14.160,33.691,42.480,19.043,0
1528296151.429,18.555,6.836,32.715,45.410,-47.852,0
1528296151.433,70.801,7.324,32.227,54.688,13.184,0
1528296151.437,66.895,14.160,30.762,53.223,27.832,0
1528296151.441,9.277,22.461,30.273,36.621,-47.852,0
1528296151.445,-5.859,22.949,33.203,31.738,14.648,0
1528296151.449,49.316,19.043,29.297,49.805,51.758,0
1528296151.453,69.336,20.020,25.391,57.617,41.992,0
1528296151.456,16.602,16.602,27.832,40.527,56.152,0
1528296151.460,-2.930,4.395,31.250,35.156,77.148,0
1528296151.464,45.410,6.348,28.320,48.828,81.543,0
1528296151.468,83.496,18.066,22.461,55.176,79.590,0
1528296151.472,46.387,28.320,26.855,46.875,58.594,0
1528296151.489,1.465,30.762,31.738,35.645,26.855,0
1528296151.493,25.391,30.273,26.367,41.016,33.691,0
1528296151.497,78.125,30.273,17.578,58.594,5.371,0
1528296151.501,54.688,32.715,26.855,53.223,-36.621,0
1528296151.505,9.277,37.598,36.133,38.574,-16.113,0
1528296151.509,19.043,42.480,28.320,41.992,-7.324,0
1528296151.513,85.938,40.527,20.508,62.988,11.230,0
1528296151.516,91.797,32.227,31.250,63.477,28.809,0
1528296151.520,21.484,26.855,43.945,44.922,21.973,0
1528296151.524,5.371,23.438,47.852,46.387,21.973,0
1528296151.528,52.246,19.043,49.316,64.941,14.160,0
1528296151.532,77.148,13.184,49.316,75.684,37.109,0
1528296151.528,35.156,11.719,50.781,63.965,33.691,0
1528296151.532,10.254,10.742,55.664,59.570,11.230,0
1528296151.536,53.223,6.836,55.176,70.312,-24.902,0
1528296151.540,94.727,7.812,51.758,75.684,0.977,0
1528296151.544,52.734,8.789,51.270,64.941,29.785,0
1528296151.548,-3.906,8.301,46.875,48.340,34.668,0
1528296151.552,7.812,8.789,44.922,56.152,7.812,0
1528296151.555,54.199,1.953,43.945,76.172,34.668,0
1528296151.559,30.273,1.465,40.039,66.406,102.051,0
1528296151.563,-36.133,10.254,45.410,44.434,32.715,0
1528296151.567,-26.367,10.742,45.410,42.480,18.066,0
1528296151.571,42.969,5.371,38.086,61.035,42.480,0
1528296151.568,56.641,6.836,36.133,62.012,-9.277,0
1528296151.572,7.812,11.230,39.551,42.480,-13.672,0
1528296151.576,-14.648,10.742,37.598,30.762,11.230,0
1528296151.580,37.109,6.836,32.227,42.480,32.227,0
1528296151.584,71.289,2.441,37.109,50.293,24.902,0
1528296151.588,23.438,10.742,28.320,33.203,6.836,0
1528296151.592,-8.789,20.508,23.438,25.391,-21.484,0
1528296151.595,24.414,20.996,32.227,32.715,28.809,0
1528296151.599,75.195,20.508,29.297,38.574,64.453,0
1528296151.603,49.805,19.043,27.344,33.691,11.230,0
1528296151.607,-6.348,20.508,28.809,25.391,9.766,0
1528296151.611,8.301,22.461,28.809,29.785,48.828,0
1528296151.629,65.918,16.113,28.320,48.828,33.203,0
1528296151.633,57.617,15.137,28.320,41.992,46.387,0
1528296151.637,0.000,20.508,30.273,23.926,36.133,0
1528296151.641,-7.812,18.555,31.250,27.832,15.137,0
1528296151.645,41.992,16.113,27.832,44.434,22.461,0
1528296151.649,53.711,17.090,25.391,48.828,4.883,0
1528296151.653,10.254,21.484,29.785,37.109,1.465,0
1528296151.656,-8.301,25.879,35.156,37.598,30.273,0
1528296151.660,42.480,19.043,33.691,49.316,14.648,0
1528296151.664,80.078,13.184,26.367,53.711,55.664,0
1528296151.668,23.438,20.996,27.344,41.992,39.551,0
1528296151.672,-16.113,15.625,34.180,28.320,25.391,0
1528296151.669,23.438,8.789,35.156,38.086,26.855,0
1528296151.673,73.242,18.555,29.297,55.664,75.195,0
1528296151.677,52.246,24.414,25.879,47.852,94.727,0
1528296151.681,0.977,26.367,27.344,33.691,53.711,0
1528296151.685,9.277,21.484,27.344,38.086,70.312,0
1528296151.689,67.383,19.531,26.855,59.082,102.539,0
1528296151.693,63.477,25.879,31.250,60.059,61.035,0
1528296151.696,17.578,27.832,30.273,38.086,-8.301,0
1528296151.700,4.883,29.785,29.785,35.156,31.738,0
1528296151.704,48.828,29.297,28.809,50.293,67.383,0
1528296151.708,79.102,28.320,25.391,54.688,86.426,0
1528296151.712,36.133,29.297,33.691,41.992,62.500,0
1528296151.708,6.348,31.250,35.645,29.785,-9.277,0
1528296151.712,33.691,29.785,29.297,38.086,-12.695,0
1528296151.716,67.871,28.320,31.738,51.270,16.602,0
1528296151.720,32.715,30.762,31.250,40.039,23.926,0
1528296151.724,-15.137,30.273,31.738,26.367,-15.625,0
1528296151.728,13.672,31.250,31.250,37.109,-21.484,0
1528296151.732,67.871,31.250,32.715,55.176,55.176,0
1528296151.735,45.898,31.250,36.133,45.898,60.059,0
1528296151.739,3.906,22.461,32.227,27.344,-1.465,0
1528296151.743,10.254,23.926,32.715,32.227,11.719,0
1528296151.747,64.453,33.691,30.762,49.316,41.992,0
1528296151.751,66.895,32.715,27.832,50.293,55.664,0
1528296151.769,1.465,33.203,34.180,27.832,58.105,0
1528296151.773,-16.602,33.691,34.668,16.113,-7.324,0
1528296151.777,42.480,29.785,25.391,33.691,-2.930,0
1528296151.781,78.125,25.391,28.320,42.480,23.438,0
1528296151.785,17.090,28.809,39.551,25.879,5.371,0
1528296151.789,-21.973,33.691,40.039,17.578,-34.668,0
1528296151.793,28.809,28.809,26.367,32.227,21.484,0
1528296151.796,82.031,26.367,23.438,50.293,56.641,0
1528296151.800,46.875,26.367,30.762,39.062,6.348,0
1528296151.804,-3.418,25.879,38.086,20.020,15.137,0
1528296151.808,14.160,26.855,39.062,24.414,37.598,0
1528296151.812,80.566,28.320,31.250,40.527,64.453,0
1528296151.809,72.754,28.809,30.762,40.527,43.457,0
1528296151.813,0.488,30.273,36.133,22.949,23.438,0
1528296151.817,-13.184,34.180,34.180,18.555,44.434,0
1528296151.821,45.898,37.109,27.832,34.180,38.086,0
1528296151.825,63.477,40.527,27.832,38.086,24.414,0
1528296151.829,-0.488,40.039,33.203,22.949,17.090,0
1528296151.833,-29.297,31.250,32.715,16.602,14.648,0
1528296151.836,30.762,25.879,27.344,37.598,25.879,0
1528296151.840,65.430,30.762,26.855,48.340,32.715,0
1528296151.844,15.625,40.039,29.297,30.273,26.367,0
1528296151.848,-18.555,33.203,34.668,20.508,25.391,0
1528296151.852,14.160,27.344,31.738,35.156,22.949,0
1528296151.870,72.266,35.645,22.949,48.340,50.293,0
1528296151.874,49.316,38.574,27.344,36.133,87.402,0
1528296151.878,-10.254,40.039,35.156,17.578,40.039,0
1528296151.882,-9.277,41.504,27.832,17.578,7.812,0
1528296151.886,46.875,34.180,21.973,39.551,0.000,0
1528296151.890,44.434,30.762,33.203,39.551,26.367,0
1528296151.894,-21.484,33.203,39.551,15.625,53.711,0
1528296151.897,-36.133,30.273,33.691,3.906,10.742,0
1528296151.901,44.922,24.414,25.879,21.973,51.758,0
1528296151.905,86.426,17.578,26.855,38.086,71.289,0
1528296151.909,25.879,22.461,31.250,22.461,14.648,0
1528296151.913,-16.113,35.156,32.227,12.695,31.738,0
1528296151.910,23.438,25.879,31.738,29.785,31.250,0
1528296151.914,62.012,21.973,24.902,44.922,6.836,0
1528296151.918,15.625,38.574,23.926,33.203,23.926,0
1528296151.922,-33.203,46.387,35.156,20.996,-21.973,0
1528296151.926,-14.648,31.250,28.809,23.926,-33.691,0
1528296151.930,42.969,24.902,13.672,31.738,-4.395,0
1528296151.934,33.203,35.645,18.066,25.391,-20.508,0
1528296151.937,-29.297,40.039,24.414,7.812,-38.086,0
1528296151.941,-31.738,38.574,22.949,4.395,37.109,0
1528296151.945,36.133,44.922,24.902,22.949,68.359,0
1528296151.949,31.250,42.969,23.926,20.996,-10.742,0
1528296151.953,-36.621,36.621,28.809,-2.930,24.902,0
1528296151.949,-57.617,37.598,28.320,-20.020,27.344,0
1528296151.953,1.465,38.086,23.438,-8.301,41.504,0
1528296151.957,33.691,41.016,24.902,-6.348,81.543,0
1528296151.961,-33.203,45.898,33.203,-39.551,50.781,0
1528296151.965,-74.707,45.898,36.133,-54.199,12.207,0
1528296151.969,-47.852,41.992,22.949,-50.293,-0.488,0
1528296151.973,-5.371,42.480,21.484,-43.945,66.895,0
1528296151.976,-37.598,46.387,27.832,-59.570,87.891,0
1528296151.980,-107.422,47.363,37.598,-84.473,49.316,0
1528296151.984,-105.469,46.387,41.016,-93.262,-8.301,0
1528296151.988,-39.062,39.551,31.738,-82.520,-3.418,0
1528296151.992,-57.617,43.945,29.785,-89.355,85.449,0
1528296152.009,-136.230,55.664,38.086,-113.281,69.824,0
1528296152.013,-152.344,51.270,44.922,-119.141,35.645,0
1528296152.017,-87.891,45.898,42.480,-98.145,30.273,0
1528296152.021,-62.012,50.293,38.086,-84.473,26.367,0
1528296152.025,-111.328,47.363,41.016,-91.309,44.434,0
1528296152.029,-123.535,40.039,40.527,-85.938,25.879,0
1528296152.033,-54.199,41.016,42.480,-53.223,56.641,0
1528296152.036,5.371,32.227,40.039,-26.367,72.754,0
1528296152.040,-27.344,31.250,27.832,-32.227,48.340,0
1528296152.044,-60.059,46.875,27.832,-28.809,2.930,0
1528296152.048,-4.883,35.156,34.668,0.488,18.066,0
1528296152.052,54.688,16.113,31.738,22.461,48.340,0
1528296152.049,26.855,24.902,25.879,19.043,39.062,0
1528296152.053,-21.484,38.574,24.902,13.672,27.832,0
1528296152.057,-5.859,41.016,28.809,27.832,8.301,0
1528296152.061,68.359,37.598,28.320,51.270,41.504,0
1528296152.065,65.918,34.668,26.855,54.199,61.523,0
1528296152.069,3.906,32.227,30.273,41.016,-6.836,0
1528296152.073,3.906,27.344,26.855,44.434,10.254,0
1528296152.076,77.637,23.926,24.902,69.824,75.684,0
1528296152.080,102.539,26.367,28.320,73.730,101.562,0
1528296152.084,29.297,24.902,33.691,51.758,14.160,0
1528296152.088,-19.531,20.996,31.738,41.992,20.996,0
1528296152.092,41.504,18.555,25.879,58.105,79.102,0
1528296152.090,99.609,14.160,26.855,74.219,8.789,0
1528296152.094,49.805,12.695,30.762,52.246,-27.832,0
1528296152.098,1.953,17.578,33.691,37.109,-46.387,0
1528296152.102,36.621,18.066,28.809,56.152,-23.438,0
1528296152.106,101.562,7.324,29.297,77.148,43.945,0
1528296152.110,83.496,6.836,35.156,71.289,-10.254,0
1528296152.114,21.484,19.043,33.691,48.340,-54.199,0
1528296152.117,27.344,20.020,30.273,52.734,-10.742,0
1528296152.121,89.355,22.461,22.949,77.637,46.387,0
1528296152.125,90.820,26.367,19.043,72.266,66.406,0
1528296152.129,37.109,23.926,20.996,58.105,18.555,0
1528296152.133,21.484,20.996,23.438,57.129,-25.391,0
1528296152.147,80.078,20.508,26.855,76.660,21.973,0
1528296152.151,109.375,19.043,26.855,87.402,40.039,0
1528296152.155,53.711,18.555,21.484,64.941,72.266,0
1528296152.159,16.602,21.484,23.926,56.152,44.434,0
1528296152.163,62.012,21.973,27.344,70.312,12.695,0
1528296152.167,115.234,20.020,26.855,81.055,69.824,0
1528296152.171,65.430,22.461,27.344,65.918,45.410,0
1528296152.174,5.371,23.438,31.250,46.387,11.719,0
1528296152.178,39.062,17.090,32.715,56.152,56.152,0
1528296152.182,100.586,18.555,27.344,76.172,88.867,0
1528296152.186,78.125,24.902,29.297,67.383,59.082,0
1528296152.190,11.230,30.762,33.203,48.340,22.461,0
1528296152.189,10.254,22.461,27.344,48.828,40.039,0
1528296152.193,80.566,7.812,23.926,69.824,66.895,0
1528296152.197,89.844,17.578,28.809,74.219,68.848,0
1528296152.201,17.578,23.926,30.762,50.781,38.086,0
1528296152.205,-15.625,23.926,29.785,39.062,2.930,0
1528296152.209,36.133,23.926,30.273,53.223,28.809,0
1528296152.213,73.730,20.020,27.344,57.129,54.199,0
1528296152.216,27.344,26.367,28.809,37.109,72.266,0
1528296152.220,-9.277,28.320,31.250,26.855,43.457,0
1528296152.224,23.438,24.414,30.762,43.945,-25.391,0
1528296152.228,77.637,19.043,33.203,60.547,13.672,0
1528296152.232,53.711,17.578,32.227,46.875,62.012,0
1528296152.229,-1.465,22.949,30.762,29.785,8.301,0
1528296152.233,14.648,24.902,31.250,35.645,-28.320,0
1528296152.237,74.707,26.367,29.785,56.152,20.508,0
1528296152.241,68.359,26.367,32.227,50.293,67.383,0
1528296152.245,11.719,20.996,30.273,23.926,22.461,0
1528296152.249,2.930,25.391,31.738,24.414,16.602,0
1528296152.253,54.688,25.391,30.762,44.434,47.852,0
1528296152.256,74.707,22.949,23.438,46.387,70.312,0
1528296152.260,10.254,24.414,26.855,25.879,26.855,0
1528296152.264,-25.391,20.020,28.320,11.719,-22.949,0
1528296152.268,46.387,23.926,29.297,35.645,44.434,0
1528296152.272,86.914,30.273,29.297,56.152,29.785,0
1528296152.290,36.621,31.738,24.902,41.016,29.785,0
1528296152.294,-9.766,31.738,31.250,24.414,43.457,0
1528296152.298,17.578,26.367,34.180,35.156,21.484,0
1528296152.302,72.754,26.367,32.715,55.176,38.086,0
1528296152.306,39.551,28.809,36.133,43.457,-46.387,0
1528296152.310,-15.625,28.809,35.156,24.414,-56.152,0
1528296152.314,-3.418,26.855,35.156,27.344,-32.227,0
1528296152.317,61.035,25.391,31.250,42.480,-20.996,0
1528296152.321,69.824,25.879,30.762,42.969,35.645,0
1528296152.325,11.230,28.320,37.598,34.668,97.168,0
1528296152.329,-7.812,27.832,38.086,31.738,47.363,0
1528296152.333,48.340,24.902,36.133,47.852,13.672,0
1528296152.330,79.102,28.809,35.645,53.711,36.133,0
1528296152.334,27.832,33.691,38.574,33.691,0.000,0
1528296152.338,-10.742,30.273,36.133,26.855,-13.184,0
1528296152.342,40.039,24.414,33.203,42.480,43.945,0
1528296152.346,86.914,22.949,32.227,54.688,112.305,0
1528296152.350,41.504,25.879,26.855,39.062,65.430,0
1528296152.354,-0.488,21.484,28.809,22.949,12.207,0
1528296152.357,30.762,22.949,33.203,29.297,45.410,0
1528296152.361,92.773,26.855,32.227,45.898,76.660,0
1528296152.365,61.523,30.273,38.574,39.551,30.273,0
1528296152.369,-17.578,31.250,37.109,21.484,16.602,0
1528296152.373,-8.789,29.297,31.250,22.949,54.199,0
1528296152.369,51.270,28.809,33.691,41.992,29.785,0
1528296152.373,58.594,31.738,35.156,43.945,29.297,0
1528296152.377,7.812,29.785,38.086,24.902,31.250,0
1528296152.381,-17.090,22.949,34.180,14.160,7.324,0
1528296152.385,42.480,22.949,23.438,30.273,20.508,0
1528296152.389,79.590,26.367,23.926,37.598,48.828,0
1528296152.393,30.273,22.949,29.785,21.973,49.316,0
1528296152.396,-12.695,16.602,30.273,15.625,14.648,0
1528296152.400,18.555,22.461,29.785,26.367,5.859,0
1528296152.404,72.266,29.785,30.273,46.875,21.973,0
1528296152.408,44.922,32.227,35.645,42.480,-25.391,0
1528296152.412,-5.859,30.273,37.598,23.438,-20.020,0
1528296152.429,15.625,25.391,31.738,29.297,22.949,0
1528296152.433,70.312,24.902,27.832,52.246,38.574,0
1528296152.437,58.105,30.273,28.809,43.945,62.988,0
1528296152.441,1.465,31.250,32.715,23.438,28.320,0
1528296152.445,-4.395,23.438,32.715,28.320,-9.766,0
1528296152.449,54.688,18.555,27.832,48.340,40.039,0
1528296152.453,64.453,30.273,28.809,48.340,67.871,0
1528296152.456,11.230,36.621,26.367,21.973,13.184,0
1528296152.460,-9.766,32.715,24.902,9.766,-23.438,0
1528296152.464,44.922,31.738,31.250,27.344,6.348,0
1528296152.468,77.637,28.809,29.297,37.598,51.270,0
1528296152.472,23.926,26.855,25.879,20.508,76.660,0
1528296152.469,-9.766,30.273,26.367,10.742,31.738,0
1528296152.473,22.461,31.738,24.414,27.832,31.250,0
1528296152.477,69.336,32.227,24.414,43.457,71.777,0
1528296152.481,36.621,32.715,28.809,31.738,34.668,0
1528296152.485,-19.531,36.133,33.691,19.043,-22.949,0
1528296152.489,0.488,35.645,30.273,30.273,-8.301,0
1528296152.493,69.336,31.738,24.902,48.828,-2.930,0
1528296152.496,67.871,31.250,28.320,44.434,7.324,0
1528296152.500,9.766,34.668,33.203,25.879,21.973,0
1528296152.504,-12.695,29.297,28.809,19.043,7.812,0
1528296152.508,40.039,19.531,21.484,35.645,10.254,0
1528296152.512,71.289,16.602,20.020,45.898,17.090,0
1528296152.509,9.766,21.973,24.414,28.320,-30.762,0
1528296152.513,-31.250,25.879,26.855,18.066,-20.996,0
1528296152.517,13.184,27.344,28.320,38.574,-0.977,0
1528296152.521,60.059,29.297,29.785,57.129,2.441,0
1528296152.525,12.695,31.250,33.203,43.945,40.527,0
1528296152.529,-32.715,36.133,32.227,27.344,91.309,0
1528296152.533,4.883,33.203,26.367,35.645,88.379,0
1528296152.536,59.570,23.926,25.879,53.711,45.898,0
1528296152.540,33.203,23.926,31.250,40.039,72.266,0
1528296152.544,-24.902,27.344,35.645,17.090,21.484,0
1528296152.548,-13.184,22.949,38.574,23.926,9.277,0
1528296152.552,50.781,21.973,32.715,41.016,34.668,0
1528296152.569,47.363,29.785,33.691,35.645,26.367,0
1528296152.573,-13.672,33.203,41.016,16.602,88.867,0
1528296152.577,-30.762,25.879,41.016,7.324,58.594,0
1528296152.581,26.855,20.020,37.109,23.926,27.344,0
1528296152.585,47.852,20.508,34.180,31.250,3.418,0
1528296152.589,-12.695,24.414,31.738,8.789,4.883,0
1528296152.593,-45.410,22.461,31.738,-3.906,65.918,0
1528296152.596,16.113,21.484,33.691,13.184,63.477,0
1528296152.600,73.242,22.949,28.320,35.156,-14.648,0
1528296152.604,23.926,26.367,24.414,26.367,-30.273,0
1528296152.608,-22.949,29.297,31.738,11.230,14.648,0
1528296152.612,12.207,28.320,39.062,21.973,40.039,0
1528296152.609,72.754,25.391,37.109,41.016,66.406,0
1528296152.613,54.199,27.344,35.156,33.203,30.273,0
1528296152.617,-0.488,30.273,39.062,18.555,-11.719,0
1528296152.621,-9.766,24.902,34.180,20.020,27.344,0
1528296152.625,49.805,23.926,28.809,40.527,17.090,0
1528296152.629,63.477,26.855,32.715,43.457,-6.348,0
1528296152.633,4.395,24.414,35.645,23.926,8.301,0
1528296152.636,-17.578,20.508,34.180,18.066,-13.672,0
1528296152.640,39.551,23.438,28.320,31.250,-15.625,0
1528296152.644,65.918,26.855,28.809,38.086,8.789,0
1528296152.648,12.695,32.227,33.691,20.508,12.207,0
1528296152.652,-20.020,36.621,33.691,7.812,39.551,0
1528296152.649,20.996,35.156,24.902,21.973,38.086,0
1528296152.653,77.637,35.645,18.066,33.691,28.320,0
1528296152.657,39.062,30.762,27.832,18.066,83.984,0
1528296152.661,-14.648,23.926,34.180,6.836,22.949,0
1528296152.665,19.043,27.832,30.273,18.555,34.180,0
1528296152.669,71.289,30.273,31.250,41.992,79.102,0
1528296152.673,47.852,32.715,30.273,38.086,37.598,0
1528296152.676,-12.207,36.133,32.715,17.090,47.852,0
1528296152.680,-14.160,34.180,33.691,13.672,54.199,0
1528296152.684,66.406,34.180,26.855,31.250,42.969,0
1528296152.688,77.148,32.227,29.297,38.086,76.172,0
1528296152.692,2.441,30.273,29.297,19.531,54.688,0
1528296152.709,-28.320,30.762,24.414,13.672,17.578,0
1528296152.713,31.250,24.414,26.367,31.250,8.789,0
1528296152.717,74.707,18.066,29.785,41.992,19.043,0
1528296152.721,19.043,28.809,33.691,26.367,20.508,0
1528296152.725,-20.996,35.645,35.156,14.160,1.953,0
1528296152.729,20.020,34.668,35.156,28.809,23.926,0
1528296152.733,65.430,40.527,35.645,38.574,45.898,0
1528296152.736,29.785,41.504,35.156,21.484,51.758,0
1528296152.740,-25.879,34.668,30.273,6.836,61.035,0
1528296152.744,-3.418,28.809,16.113,11.719,51.270,0
1528296152.748,69.336,27.344,20.508,30.273,87.402,0
1528296152.752,61.523,27.832,32.715,25.879,94.238,0
1528296152.750,1.465,35.156,33.203,7.324,19.043,0
1528296152.754,-13.672,40.039,33.203,7.324,-25.879,0
1528296152.758,50.781,35.645,29.785,27.832,67.871,0
1528296152.762,65.430,34.180,32.715,33.203,99.121,0
1528296152.766,-2.930,34.668,38.086,13.672,15.137,0
1528296152.770,-29.785,36.133,38.574,7.812,4.395,0
1528296152.774,26.855,32.715,35.156,27.832,14.648,0
1528296152.777,71.777,27.344,32.227,44.434,4.395,0
1528296152.781,24.902,28.809,36.133,37.109,20.020,0
1528296152.785,-21.973,36.133,41.016,19.043,45.410,0
1528296152.789,15.625,35.645,40.039,29.297,47.363,0
1528296152.793,88.379,32.227,36.621,54.688,54.199,0
1528296152.788,69.824,35.645,35.156,41.504,81.543,0
1528296152.792,5.371,35.645,31.738,21.484,71.289,0
1528296152.796,-4.395,29.785,32.227,25.879,22.461,0
1528296152.800,58.594,25.879,29.297,43.945,8.789,0
1528296152.804,65.430,25.879,29.785,41.504,5.371,0
1528296152.808,-5.859,29.785,36.133,19.043,-41.504,0
1528296152.812,-21.484,29.785,34.180,10.254,-27.832,0
1528296152.815,39.062,27.344,32.227,31.738,18.555,0
1528296152.819,70.801,30.273,31.250,39.551,41.504,0
1528296152.823,27.344,29.785,33.691,16.602,5.859,0
1528296152.827,-9.277,20.996,40.039,10.742,-45.898,0
1528296152.831,27.344,27.344,40.527,28.320,-42.969,0
1528296152.849,76.172,36.621,39.062,44.922,0.977,0
1528296152.853,45.898,41.992,42.969,33.203,8.789,0
1528296152.857,-9.766,42.480,40.039,13.672,-13.672,0
1528296152.861,4.883,34.180,35.645,25.879,-17.578,0
1528296152.865,75.195,34.180,32.227,45.410,23.926,0
1528296152.869,61.523,34.668,31.738,38.086,55.176,0
1528296152.873,-2.441,32.715,36.133,17.578,73.242,0
1528296152.876,-5.859,28.809,32.227,17.090,38.086,0
1528296152.880,56.641,26.855,27.832,43.945,27.344,0
1528296152.884,76.172,29.297,31.250,50.781,82.031,0
1528296152.888,8.301,32.715,31.250,27.344,81.055,0
1528296152.892,-15.625,33.203,32.227,17.090,18.066,0
1528296152.909,48.828,26.855,32.715,38.086,55.176,0
1528296152.913,82.520,28.809,33.691,53.223,77.637,0
1528296152.917,30.762,24.902,37.598,34.668,-5.371,0
1528296152.921,-19.043,18.066,35.645,15.625,-2.441,0
1528296152.925,14.648,26.855,33.203,27.832,73.730,0
1528296152.929,65.430,35.645,35.156,41.992,82.520,0
1528296152.933,23.926,41.504,40.527,20.996,42.969,0
1528296152.936,-33.203,45.410,39.062,1.465,0.977,0
1528296152.940,-19.531,40.039,33.691,9.277,-4.883,0
1528296152.944,28.320,34.180,30.273,17.578,8.789,0
1528296152.948,16.602,39.062,30.762,2.441,20.508,0
1528296152.952,-35.645,44.922,34.668,-17.578,55.176,0
1528296152.930,-47.852,43.457,33.691,-26.367,36.621,0
1528296152.934,2.930,45.898,26.855,-16.113,-27.344,0
1528296152.938,11.230,50.781,27.344,-18.555,25.879,0
1528296152.942,-50.781,58.105,31.738,-51.270,95.703,0
1528296152.946,-92.285,60.059,33.203,-69.336,31.250,0
1528296152.950,-51.758,56.152,35.645,-57.129,6.836,0
1528296152.954,-16.113,48.828,32.227,-61.035,33.203,0
1528296152.957,-62.012,45.410,28.320,-84.473,34.180,0
1528296152.961,-105.469,59.082,31.738,-96.191,-7.812,0
1528296152.965,-87.402,64.453,32.227,-91.797,0.000,0
1528296152.969,-37.598,60.059,28.809,-83.496,33.203,0
1528296152.973,-54.688,67.871,25.879,-88.379,2.930,0
1528296152.990,-114.258,69.336,30.762,-100.098,-50.781,0
1528296152.994,-91.797,66.406,27.832,-84.473,-9.277,0
1528296152.998,-5.371,58.594,14.160,-53.223,36.621,0
1528296153.002,-9.766,51.758,17.090,-50.781,49.805,0
1528296153.006,-71.777,48.340,24.414,-52.734,25.879,0
1528296153.010,-78.125,42.480,26.367,-41.992,-7.812,0
1528296153.014,5.859,38.086,22.949,-14.160,-0.488,0
1528296153.017,61.523,41.992,20.996,10.742,30.762,0
1528296153.021,3.418,40.527,24.902,3.418,50.781,0
1528296153.025,-35.645,24.414,25.879,-3.418,-24.414,0
1528296153.029,15.137,13.184,28.320,23.926,-20.020,0
1528296153.033,70.312,17.578,30.762,50.293,30.273,0
1528296153.030,41.992,25.391,29.785,39.551,19.531,0
1528296153.034,-0.977,25.879,31.250,25.879,30.762,0
1528296153.038,29.785,23.438,31.738,40.527,31.738,0
1528296153.042,97.168,19.531,30.273,64.941,20.996,0
1528296153.046,83.496,22.949,32.715,58.594,19.531,0
1528296153.050,25.391,20.996,35.156,41.016,13.672,0
1528296153.054,22.461,8.301,35.645,45.410,-6.348,0
1528296153.057,89.844,11.719,32.715,62.500,39.551,0
1528296153.061,98.633,22.461,29.785,65.430,71.289,0
1528296153.065,25.879,27.344,33.203,46.387,16.602,0
1528296153.069,15.625,25.879,30.273,40.039,-10.254,0
1528296153.073,81.055,21.484,24.414,64.941,31.738,0
1528296153.069,101.562,19.043,29.785,73.242,85.938,0
1528296153.073,45.410,22.461,34.668,53.223,50.293,0
1528296153.077,9.277,24.414,40.039,41.992,1.953,0
1528296153.081,55.176,15.137,38.574,59.082,15.625,0
1528296153.085,103.027,22.949,30.273,73.730,53.223,0
1528296153.089,60.547,29.785,33.203,57.129,44.434,0
1528296153.093,6.836,19.043,38.574,41.504,1.465,0
1528296153.096,24.414,20.508,36.133,47.852,-29.785,0
1528296153.100,91.309,22.949,31.738,67.383,-4.395,0
1528296153.104,81.543,22.461,34.668,65.918,-2.930,0
1528296153.108,11.719,20.996,37.598,47.363,6.836,0
1528296153.112,7.324,14.160,32.715,42.969,40.039,0
1528296153.130,69.824,13.672,31.738,61.035,38.574,0
1528296153.134,86.914,16.113,32.715,65.918,23.438,0
1528296153.138,32.227,20.020,32.227,46.875,95.215,0
1528296153.142,7.324,19.043,30.273,36.621,48.340,0
1528296153.146,68.359,13.672,24.414,54.199,-4.395,0
1528296153.150,104.980,24.414,28.320,66.895,78.125,0
1528296153.154,54.199,32.227,32.227,52.246,41.016,0
1528296153.157,16.113,31.738,27.344,35.645,20.996,0
1528296153.161,47.363,31.250,25.879,41.504,63.477,0
1528296153.165,111.328,30.273,27.344,60.059,75.684,0
1528296153.169,77.148,37.598,30.762,49.805,6.348,0
1528296153.173,14.648,37.598,32.227,30.762,1.953,0
1528296153.169,30.273,28.809,31.250,40.039,27.832,0
1528296153.173,76.172,22.461,30.273,58.594,5.371,0
1528296153.177,62.988,21.484,30.762,53.711,48.340,0
1528296153.181,2.930,22.461,31.250,33.691,62.500,0
1528296153.185,-7.324,24.902,28.320,26.855,41.504,0
1528296153.189,51.758,24.902,26.367,45.410,54.688,0
1528296153.193,62.012,20.996,27.832,48.340,1.465,0
1528296153.196,6.348,22.461,26.855,28.809,-0.977,0
1528296153.200,-26.367,26.855,29.297,21.973,39.062,0
1528296153.204,14.648,24.414,28.809,30.273,55.664,0
1528296153.208,63.477,20.996,23.438,41.016,98.633,0
1528296153.212,20.996,16.113,29.785,30.273,65.918,0
1528296153.210,-20.020,10.254,33.691,19.043,29.785,0
1528296153.214,9.766,22.461,31.738,33.203,-12.695,0
1528296153.218,69.336,26.367,36.133,51.270,-5.371,0
1528296153.222,64.941,20.996,31.738,49.316,33.691,0
1528296153.226,4.395,31.250,21.973,20.508,26.855,0
1528296153.230,-1.953,37.598,25.391,2.930,6.836,0
1528296153.234,57.617,31.738,28.320,21.484,68.848,0
1528296153.237,48.340,32.227,25.391,20.020,75.195,0
1528296153.241,1.465,38.086,20.508,0.977,52.734,0
1528296153.245,-3.418,37.109,17.090,0.977,38.574,0
1528296153.249,51.758,33.691,16.602,21.973,39.551,0
1528296153.253,78.125,33.203,17.578,32.715,28.320,0
1528296153.270,17.090,35.645,22.949,14.160,-3.418,0
1528296153.274,-3.418,36.133,26.367,6.348,32.715,0
1528296153.278,49.805,30.762,24.414,24.414,53.223,0
1528296153.282,83.984,32.715,24.414,41.504,66.406,0
1528296153.286,39.551,32.227,27.344,29.297,16.602,0
1528296153.290,-14.648,25.391,28.320,7.324,-29.297,0
1528296153.294,12.695,27.832,22.461,10.254,7.324,0
1528296153.297,80.078,30.273,18.555,25.391,77.637,0
1528296153.301,54.688,25.879,25.391,18.066,80.078,0
1528296153.305,-8.789,25.879,27.344,3.906,15.137,0
1528296153.309,-9.766,37.598,26.855,5.371,4.883,0
1528296153.313,51.270,40.527,31.250,30.762,43.457,0
1528296153.310,52.246,37.109,30.762,36.621,50.781,0
1528296153.314,-16.113,38.574,31.738,17.578,14.648,0
1528296153.318,-30.273,40.039,31.738,16.113,-2.441,0
1528296153.322,36.133,34.668,30.762,40.039,32.227,0
1528296153.326,80.566,29.297,30.273,48.828,29.785,0
1528296153.330,35.156,29.785,32.715,27.344,71.777,0
1528296153.334,-11.230,33.203,29.785,15.625,57.617,0
1528296153.337,31.250,31.738,25.391,30.762,-0.488,0
1528296153.341,84.473,29.785,31.738,42.969,70.801,0
1528296153.345,40.527,30.762,35.156,27.832,76.172,0
1528296153.349,-5.371,31.250,33.203,12.207,17.090,0
1528296153.353,21.973,35.645,27.832,20.020,29.785,0
1528296153.370,83.496,36.133,23.926,40.039,63.965,0
1528296153.374,69.336,40.039,27.344,31.738,47.363,0
1528296153.378,7.324,47.363,26.855,10.254,-4.883,0
1528296153.382,-6.348,36.133,29.297,6.348,-34.180,0
1528296153.386,58.105,22.461,26.367,22.949,-19.043,0
1528296153.390,79.102,34.180,18.066,26.855,10.742,0
1528296153.394,-0.977,40.527,20.996,10.254,31.738,0
1528296153.397,-38.086,36.133,20.508,1.953,42.480,0
1528296153.401,29.297,36.133,18.066,17.090,19.531,0
1528296153.405,69.336,36.133,20.996,29.785,49.316,0
1528296153.409,12.695,29.297,25.879,13.184,54.688,0
1528296153.413,-35.156,23.438,27.344,1.465,-4.395,0
1528296153.409,-6.348,29.297,24.902,11.230,29.785,0
1528296153.413,52.734,33.203,21.973,24.902,53.711,0
1528296153.417,21.484,32.715,25.391,10.742,-8.789,0
1528296153.421,-37.109,32.227,30.762,-8.789,25.879,0
1528296153.425,-21.484,31.250,26.367,3.906,42.480,0
1528296153.429,44.434,30.762,27.832,29.785,19.531,0
1528296153.433,45.898,32.227,37.598,30.273,53.711,0
1528296153.436,-7.812,32.227,42.969,14.160,31.738,0
1528296153.440,-12.695,21.484,36.621,6.348,-18.066,0
1528296153.444,52.246,18.066,23.926,26.367,-19.531,0
1528296153.448,66.895,27.344,27.832,32.715,29.785,0
1528296153.452,11.719,33.203,36.133,5.859,41.016,0
1528296153.448,-12.207,34.180,35.645,0.977,26.367,0
1528296153.452,32.227,33.691,32.227,18.066,-18.066,0
1528296153.456,76.660,37.109,33.691,28.809,23.926,0
1528296153.460,26.367,32.715,38.086,13.184,52.246,0
1528296153.464,-26.855,29.297,34.180,-6.348,32.227,0
1528296153.468,7.324,37.109,27.832,2.441,36.621,0
1528296153.472,68.359,36.621,25.879,23.926,22.461,0
1528296153.475,38.574,31.738,30.273,15.625,69.336,0
1528296153.479,-29.785,30.273,30.273,-3.906,55.176,0
1528296153.483,-20.508,32.227,29.297,-1.953,-10.742,0
1528296153.487,63.965,33.203,33.691,22.949,35.156,0
1528296153.491,70.312,34.180,31.250,25.879,77.148,0
1528296153.510,-0.488,29.785,30.273,11.719,35.645,0
1528296153.514,-33.691,25.391,34.180,5.371,-38.574,0
1528296153.518,28.809,30.762,28.320,14.160,0.488,0
1528296153.522,67.383,27.832,26.367,23.926,84.473,0
1528296153.526,-3.418,23.438,30.273,5.371,63.965,0
1528296153.530,-42.480,23.438,31.250,-2.930,41.992,0
1528296153.534,22.949,25.879,24.902,18.555,67.383,0
1528296153.537,72.754,27.832,19.531,33.691,77.148,0
1528296153.541,27.344,27.832,30.762,17.090,27.832,0
1528296153.545,-29.785,23.926,42.969,0.977,-21.973,0
1528296153.549,-10.742,17.090,43.457,14.648,17.578,0
1528296153.553,51.758,13.184,40.039,40.039,78.613,0
1528296153.550,41.504,14.160,44.922,38.086,86.914,0
1528296153.554,-2.930,14.160,46.387,25.391,102.051,0
1528296153.558,0.000,16.602,37.598,23.926,40.527,0
1528296153.562,76.172,18.555,33.691,43.457,64.941,0
1528296153.566,91.309,19.043,40.039,50.781,78.125,0
1528296153.570,17.578,20.996,41.016,27.344,56.641,0
1528296153.574,-7.324,20.508,37.598,17.578,-18.555,0
1528296153.577,48.828,17.578,37.598,41.016,-34.180,0
1528296153.581,80.078,17.090,26.367,49.805,62.500,0
1528296153.585,23.926,18.555,25.391,26.367,48.340,0
1528296153.589,-19.531,22.949,35.156,3.906,-12.695,0
1528296153.593,26.367,18.555,29.297,15.137,-6.836,0
1528296153.590,82.520,17.090,30.273,38.574,17.578,0
1528296153.594,42.969,30.273,32.227,27.344,-17.090,0
1528296153.598,-15.137,27.832,33.203,19.043,-33.691,0
1528296153.602,6.348,17.578,35.156,25.879,41.992,0
1528296153.606,75.195,18.066,34.180,39.551,84.473,0
1528296153.610,54.199,24.902,37.598,37.598,36.621,0
1528296153.614,-6.836,25.879,37.109,22.461,-10.742,0
1528296153.617,-8.789,24.414,28.809,19.043,57.617,0
1528296153.621,47.363,26.855,31.738,36.133,90.820,0
1528296153.625,64.941,23.926,38.574,40.039,31.738,0
1528296153.629,10.742,20.996,41.016,20.996,44.922,0
1528296153.633,-22.949,18.066,40.527,13.672,52.246,0
1528296153.649,35.645,18.066,30.762,36.621,13.672,0
1528296153.653,79.102,23.926,28.809,47.852,45.898,0
1528296153.657,22.461,21.484,30.762,20.996,43.945,0
1528296153.661,-24.414,21.973,33.691,5.859,-21.973,0
1528296153.665,18.555,22.461,33.203,21.973,28.320,0
1528296153.669,69.824,16.602,34.668,41.992,9.277,0
1528296153.673,38.086,19.043,40.527,28.320,6.836,0
1528296153.676,-6.348,20.020,42.969,6.348,18.555,0
1528296153.680,0.488,17.090,36.133,10.742,10.254,0
1528296153.684,51.270,18.066,22.461,29.785,67.871,0
1528296153.688,45.898,15.137,25.879,24.902,17.578,0
1528296153.692,-13.672,11.230,37.598,7.324,8.789,0
1528296153.689,-20.508,18.066,39.551,3.418,26.367,0
1528296153.693,48.828,25.879,34.180,19.043,-8.301,0
1528296153.697,81.055,28.320,34.668,29.297,40.527,0
1528296153.701,24.902,34.668,35.645,13.184,-8.789,0
1528296153.705,-12.695,39.551,30.273,-5.371,-50.781,0
1528296153.709,33.203,35.156,26.367,3.906,14.160,0
1528296153.713,82.031,35.156,27.832,25.879,85.449,0
1528296153.716,36.133,34.668,34.180,12.207,91.797,0
1528296153.720,-22.461,26.367,31.250,-6.836,9.277,0
1528296153.724,0.000,24.414,27.344,2.441,60.547,0
1528296153.728,52.734,29.297,28.809,18.555,98.145,0
1528296153.732,42.969,33.691,29.785,12.207,0.977,0
1528296153.729,-9.277,33.691,31.738,1.465,-3.906,0
1528296153.733,0.488,32.715,32.227,17.090,10.254,0
1528296153.737,75.195,29.785,24.414,38.086,35.645,0
1528296153.741,62.012,27.832,23.438,25.391,44.922,0
1528296153.745,-12.695,25.879,30.273,7.812,18.066,0
1528296153.749,-27.344,24.414,27.832,1.953,14.648,0
1528296153.753,35.156,28.809,22.949,25.879,49.316,0
1528296153.756,69.824,25.391,21.973,42.969,99.609,0
1528296153.760,3.906,30.762,22.461,9.766,53.711,0
1528296153.764,-29.297,34.668,24.414,-4.395,-1.953,0
1528296153.768,36.621,25.391,29.785,19.043,7.324,0
1528296153.772,93.262,24.902,28.320,31.250,99.609,0
1528296153.790,53.223,32.715,30.762,16.602,65.918,0
1528296153.794,-16.113,38.086,34.180,-3.418,0.977,0
1528296153.798,0.000,38.574,35.156,7.324,44.922,0
1528296153.802,65.918,37.109,33.203,22.949,-0.488,0
1528296153.806,61.523,35.156,34.668,9.277,-0.977,0
1528296153.810,-0.977,30.273,36.133,-6.836,18.555,0
1528296153.814,-7.812,30.762,29.785,-12.207,8.301,0
1528296153.817,76.660,30.273,25.391,0.488,2.441,0
1528296153.821,84.473,35.645,23.926,7.812,13.672,0
1528296153.825,-4.883,26.855,26.367,-15.625,18.555,0
1528296153.829,-28.320,15.137,29.785,-25.879,44.922,0
1528296153.833,37.109,28.809,35.645,2.441,28.809,0
1528296153.830,74.707,28.809,37.109,18.066,15.137,0
1528296153.834,20.508,28.809,33.203,-0.977,-36.133,0
1528296153.838,-26.855,28.809,36.621,-9.766,-34.668,0
1528296153.842,8.789,25.391,37.109,-0.488,31.250,0
1528296153.846,66.406,19.531,33.691,10.254,11.719,0
1528296153.850,32.227,23.438,32.715,5.371,-3.418,0
1528296153.854,-27.832,37.109,30.273,-6.836,7.324,0
1528296153.857,-12.695,36.133,23.438,1.465,17.090,0
1528296153.861,62.012,29.785,24.414,21.484,45.898,0
1528296153.865,52.734,30.273,35.645,20.996,41.016,0
1528296153.869,-15.625,24.902,40.527,-0.488,-33.691,0
1528296153.873,-7.324,16.602,36.133,-7.812,-27.344,0
1528296153.870,66.895,16.113,34.180,18.066,35.645,0
1528296153.874,74.707,17.578,35.156,28.809,62.012,0
1528296153.878,-4.883,13.184,31.250,7.812,60.547,0
1528296153.882,-37.109,14.648,29.297,1.953,27.344,0
1528296153.886,30.762,19.043,26.855,24.414,26.855,0
1528296153.890,75.684,25.391,25.879,36.133,24.414,0
1528296153.894,22.461,32.715,32.227,14.160,23.926,0
1528296153.897,-22.949,28.809,34.180,1.465,60.547,0
1528296153.901,15.137,29.785,36.133,15.625,64.453,0
1528296153.905,85.449,27.344,34.180,34.180,71.289,0
1528296153.909,56.152,27.832,31.250,26.367,47.852,0
1528296153.913,-9.766,30.762,36.621,1.465,5.371,0
1528296153.930,8.789,21.484,33.691,-0.977,-32.227,0
1528296153.934,73.730,15.137,24.902,20.996,9.766,0
1528296153.938,64.941,24.414,33.691,22.949,72.754,0
1528296153.942,2.930,35.156,38.086,-1.465,22.949,0
1528296153.946,-20.020,35.156,29.297,-7.812,-27.832,0
1528296153.950,34.668,29.785,23.438,17.090,3.418,0
1528296153.954,68.359,29.297,32.715,22.949,37.598,0
1528296153.957,21.973,27.344,39.551,2.441,36.621,0
1528296153.961,-12.207,21.484,29.785,-4.883,48.828,0
1528296153.965,26.855,24.414,25.391,6.836,26.367,0
1528296153.969,70.312,30.273,30.273,20.508,23.926,0
1528296153.973,11.230,34.668,32.227,2.441,51.270,0
1528296153.970,-42.480,35.156,31.738,-18.555,-6.348,0
1528296153.974,-1.465,35.645,26.855,-5.859,9.277,0
1528296153.978,66.406,34.668,25.879,19.043,103.027,0
1528296153.982,55.176,36.621,28.320,15.625,106.445,0
1528296153.986,-1.953,39.062,31.250,-10.742,32.227,0
1528296153.990,-1.953,30.762,29.785,-15.625,-23.926,0
1528296153.994,64.453,31.738,25.879,6.836,39.551,0
1528296153.997,72.266,42.480,26.367,7.324,47.852,0
1528296154.001,13.184,45.410,31.250,-14.160,-6.348,0
1528296154.005,-25.879,38.574,34.180,-21.973,-20.996,0
1528296154.009,29.785,31.738,31.738,-6.836,9.277,0
1528296154.013,79.590,32.227,24.414,2.930,72.754,0
1528296154.009,17.578,34.668,24.902,-13.184,19.531,0
1528296154.013,-26.855,23.438,32.227,-26.367,15.625,0
1528296154.017,17.578,18.066,30.273,-8.789,70.312,0
1528296154.021,67.871,29.297,23.926,5.859,46.387,0
1528296154.025,33.691,35.156,29.785,-6.348,-25.391,0
1528296154.029,-20.996,38.574,39.551,-16.113,-29.785,0
1528296154.033,-1.953,40.039,36.133,-9.766,-9.766,0
1528296154.036,64.941,36.133,29.297,14.160,-14.648,0
1528296154.040,45.898,34.180,34.668,6.348,19.531,0
1528296154.044,-11.230,35.156,40.527,-11.719,30.273,0
1528296154.048,-8.789,30.273,34.180,-5.859,32.227,0
1528296154.052,46.387,21.973,24.902,6.348,17.090,0
1528296154.067,61.523,21.973,29.785,12.207,42.969,0
1528296154.071,6.836,29.297,34.180,-0.488,27.344,0
1528296154.075,-12.695,33.203,26.367,-4.883,15.137,0
1528296154.079,34.180,30.273,21.484,9.766,71.289,0
1528296154.083,66.895,30.273,24.414,20.996,42.480,0
1528296154.087,24.902,36.621,29.297,7.324,23.438,0
1528296154.091,-14.648,41.016,32.715,-11.719,19.531,0
1528296154.094,21.484,37.598,32.715,2.930,24.414,0
1528296154.098,72.754,25.879,30.762,26.367,24.902,0
1528296154.102,48.340,17.090,30.762,12.207,-36.621,0
1528296154.106,-1.465,28.320,35.156,-6.836,-19.531,0
1528296154.110,2.441,41.016,35.156,-2.930,22.461,0
1528296154.109,68.848,40.527,28.320,10.742,57.617,0
1528296154.113,78.613,41.992,26.367,7.812,50.781,0
1528296154.117,12.695,43.457,32.227,-10.254,5.859,0
1528296154.121,-2.441,39.551,35.156,-14.648,62.500,0
1528296154.125,48.828,31.250,25.879,2.441,83.008,0
1528296154.129,55.664,26.367,22.949,6.836,49.805,0
1528296154.133,-6.348,26.367,21.973,-13.672,28.320,0
1528296154.136,-43.457,24.902,22.461,-23.438,-17.090,0
1528296154.140,13.184,19.043,24.414,-2.930,22.461,0
1528296154.144,61.035,23.438,22.461,10.742,65.430,0
1528296154.148,1.953,29.297,29.785,-5.371,13.672,0
1528296154.152,-40.039,28.809,33.691,-15.137,-31.738,0
1528296154.150,-3.418,22.461,33.203,-8.301,-30.273,0
1528296154.154,62.012,16.602,22.949,10.742,15.625,0
1528296154.158,46.387,28.320,22.949,14.648,60.059,0
1528296154.162,-19.531,34.180,29.297,-2.441,39.062,0
1528296154.166,-14.160,34.180,27.344,-2.930,13.672,0
1528296154.170,51.758,28.809,30.273,19.043,37.109,0
1528296154.174,42.969,23.438,29.785,13.184,79.590,0
1528296154.177,-31.250,24.414,33.203,-11.230,29.785,0
1528296154.181,-54.199,23.926,35.645,-18.555,-12.695,0
1528296154.185,22.461,15.625,25.879,3.906,40.039,0
1528296154.189,73.242,17.578,21.973,28.809,58.105,0
1528296154.193,18.555,31.250,29.785,10.254,8.789,0
1528296154.210,-32.715,35.156,29.785,-9.766,29.297,0
1528296154.214,13.184,29.785,29.297,10.742,61.035,0
1528296154.218,75.195,27.344,28.809,25.391,29.297,0
1528296154.222,31.738,28.809,31.250,4.395,-11.230,0
1528296154.226,-27.832,31.250,33.691,-18.066,-19.531,0
1528296154.230,-4.395,25.391,32.715,-2.930,-17.090,0
1528296154.234,57.617,22.461,29.297,12.207,14.160,0
1528296154.237,45.898,25.879,22.949,-7.324,35.645,0
1528296154.241,-13.184,27.832,25.391,-25.879,36.133,0
1528296154.245,-17.090,29.785,26.367,-23.926,33.691,0
1528296154.249,51.270,25.391,21.484,-0.488,44.434,0
1528296154.253,59.570,29.297,23.438,6.348,71.289,0
1528296154.250,-6.836,29.297,23.438,-15.137,19.531,0
1528296154.254,-31.250,26.367,29.297,-24.414,-22.949,0
1528296154.258,35.645,28.809,27.832,-1.953,12.695,0
1528296154.262,90.332,33.203,22.949,18.555,100.098,0
1528296154.266,33.691,30.273,33.203,-0.977,97.168,0
1528296154.270,-36.133,24.414,39.062,-19.531,9.277,0
1528296154.274,-3.906,17.578,34.180,-0.977,10.254,0
1528296154.277,65.430,28.320,25.879,20.996,54.688,0
1528296154.281,39.062,38.574,28.320,10.254,67.383,0
1528296154.285,-28.809,39.062,38.086,-0.977,51.270,0
1528296154.289,-11.230,43.457,34.180,2.441,72.754,0
1528296154.293,66.406,41.016,23.438,13.672,55.176,0
1528296154.290,55.664,40.527,28.809,17.090,54.199,0
1528296154.294,2.441,30.762,35.156,2.441,11.230,0
1528296154.298,5.859,19.531,30.762,0.488,-17.090,0
1528296154.302,63.477,22.461,25.391,25.879,40.527,0
1528296154.306,78.613,24.902,23.438,38.574,88.379,0
1528296154.310,23.926,25.391,23.926,11.719,76.660,0
1528296154.314,-7.812,29.785,21.973,-11.230,-9.766,0
1528296154.317,35.156,32.715,22.949,6.836,-5.371,0
1528296154.321,79.590,22.949,22.949,20.020,45.898,0
1528296154.325,39.551,18.555,22.949,0.488,64.453,0
1528296154.329,-5.859,29.297,31.250,-13.672,55.664,0
1528296154.333,31.738,36.133,26.367,-0.488,30.273,0
1528296154.370,87.891,34.668,23.438,14.160,51.758,0
1528296154.374,58.594,31.738,32.715,2.441,57.617,0
1528296154.378,-0.488,34.668,29.297,-14.160,16.113,0
1528296154.382,9.766,33.691,28.320,-3.906,-31.738,0
1528296154.386,79.590,25.391,28.809,20.020,1.953,0
1528296154.390,74.219,22.949,32.227,15.137,60.547,0
1528296154.394,15.625,30.273,43.457,-5.371,46.387,0
1528296154.397,10.742,31.738,43.945,-3.418,21.973,0
1528296154.401,59.570,23.926,37.109,19.043,10.254,0
1528296154.405,77.637,19.043,37.109,28.809,20.996,0
1528296154.409,13.672,22.461,35.156,3.906,22.949,0
1528296154.413,-34.180,21.973,31.250,-12.695,-1.465,0
1528296154.389,23.438,24.902,27.344,1.953,19.531,0
1528296154.393,81.055,26.367,31.738,16.602,-10.254,0
1528296154.397,37.598,25.879,39.551,0.977,19.043,0
1528296154.401,-19.043,21.973,41.992,-15.137,37.598,0
1528296154.405,7.812,18.555,41.992,-3.418,-32.227,0
1528296154.409,67.871,18.555,31.250,17.090,59.570,0
1528296154.413,45.410,20.020,31.250,15.625,114.746,0
1528296154.416,-7.812,25.391,34.668,-5.371,29.297,0
1528296154.420,-7.324,28.809,29.297,-8.789,22.461,0
1528296154.424,51.758,29.785,30.273,10.742,74.707,0
1528296154.428,62.988,27.832,29.297,6.348,36.133,0
1528296154.432,15.137,25.391,30.762,-12.207,-16.602,0
1528296154.429,-6.348,24.902,36.133,-19.043,1.465,0
1528296154.433,39.062,29.785,35.645,-5.371,26.367,0
1528296154.437,62.012,27.344,33.691,6.836,48.828,0
1528296154.441,2.930,27.832,33.203,-18.066,-10.254,0
1528296154.445,-28.320,24.902,27.344,-29.785,-21.973,0
1528296154.449,8.301,22.461,21.973,-11.719,-4.395,0
1528296154.453,64.941,29.785,25.391,2.930,61.523,0
1528296154.456,34.668,35.645,36.133,-7.324,105.957,0
1528296154.460,-10.742,30.273,34.668,-28.809,13.184,0
1528296154.464,30.762,26.367,24.902,-21.973,-26.855,0
1528296154.468,93.750,37.598,27.344,3.418,75.684,0
1528296154.472,68.848,39.062,34.668,-1.953,24.414,0
1528296154.489,-0.977,40.039,39.062,-19.531,-41.992,0
1528296154.493,-3.906,42.480,33.691,-17.578,13.184,0
1528296154.497,73.242,34.668,24.414,2.441,74.707,0
1528296154.501,80.566,29.785,32.715,1.465,107.910,0
1528296154.505,4.395,34.180,40.039,-23.438,58.105,0
1528296154.509,-25.879,33.691,39.551,-31.738,20.508,0
1528296154.513,30.273,27.344,37.109,-13.184,75.684,0
1528296154.516,81.055,27.832,34.180,0.488,125.488,0
1528296154.520,28.320,36.133,37.109,-13.672,49.316,0
1528296154.524,-22.949,37.109,35.156,-30.273,-12.207,0
1528296154.528,17.578,34.668,28.320,-20.020,20.996,0
1528296154.532,74.707,28.320,27.344,-5.859,37.598,0
1528296154.551,38.574,25.879,29.785,-24.414,1.953,0
1528296154.555,-17.090,34.668,35.156,-37.109,-20.020,0
1528296154.559,-5.859,35.645,34.668,-30.273,-44.922,0
1528296154.563,41.504,30.273,33.203,-23.438,-18.066,0
1528296154.567,37.109,26.367,36.133,-36.621,37.598,0
1528296154.571,-22.949,36.621,31.738,-58.105,65.918,0
1528296154.575,-58.105,49.805,29.785,-62.012,18.555,0
1528296154.578,-2.441,46.875,23.926,-43.457,-11.719,0
1528296154.582,22.461,44.434,20.508,-44.434,55.176,0
1528296154.586,-50.781,51.270,26.855,-81.055,15.625,0
1528296154.590,-88.379,53.223,28.320,-103.516,-6.836,0
1528296154.594,-28.320,42.969,29.785,-86.914,20.996,0
1528296154.570,6.836,42.480,20.996,-78.613,27.344,0
1528296154.574,-63.477,60.547,21.484,-104.980,31.250,0
1528296154.578,-138.672,69.824,28.809,-130.859,15.625,0
1528296154.582,-113.770,69.336,33.203,-132.324,28.320,0
1528296154.586,-43.945,74.219,36.621,-111.816,72.266,0
1528296154.590,-72.266,71.289,25.879,-119.141,56.641,0
1528296154.594,-127.441,64.941,14.160,-133.301,45.898,0
1528296154.597,-108.887,59.082,19.531,-119.141,53.223,0
1528296154.601,-30.762,55.664,31.738,-95.215,63.477,0
1528296154.605,-13.184,47.852,28.809,-81.543,58.105,0
1528296154.609,-61.523,42.480,26.367,-87.891,19.043,0
1528296154.613,-67.383,59.570,29.297,-82.031,24.902,0
1528296154.630,-12.695,62.988,22.949,-50.293,26.855,0
1528296154.634,32.715,56.152,7.324,-28.320,12.695,0
1528296154.638,-1.465,49.805,9.277,-31.738,12.207,0
1528296154.642,-29.297,44.434,26.367,-38.086,11.719,0
1528296154.646,30.762,37.598,35.645,-16.113,-4.395,0
1528296154.650,74.707,27.832,36.133,4.883,-19.043,0
1528296154.654,43.945,31.738,36.621,-4.395,-1.465,0
1528296154.657,9.766,33.203,32.227,-17.578,-6.836,0
1528296154.661,42.480,22.949,28.320,-2.441,-27.832,0
1528296154.665,108.398,16.113,36.133,25.391,31.250,0
1528296154.669,84.473,22.461,35.156,17.578,61.523,0
1528296154.673,24.902,29.297,31.738,-4.395,27.832,0
1528296154.670,30.273,27.832,34.180,3.418,43.945,0
1528296154.674,99.609,29.785,35.156,35.156,39.062,0
1528296154.678,111.328,31.738,37.109,31.738,28.809,0
1528296154.682,50.781,31.250,41.992,9.766,14.648,0
1528296154.686,26.855,25.391,38.086,11.230,29.297,0
1528296154.690,73.730,10.254,33.203,32.227,-3.906,0
1528296154.694,104.492,10.742,40.039,41.992,-35.156,0
1528296154.697,50.781,16.602,39.551,22.461,8.301,0
1528296154.701,7.324,19.531,36.133,10.254,52.246,0
1528296154.705,49.316,21.484,36.133,17.578,18.555,0
1528296154.709,105.469,18.066,35.156,31.250,24.902,0
1528296154.713,70.312,18.555,36.133,22.949,20.020,0
1528296154.707,23.926,18.555,35.156,9.277,-23.438,0
1528296154.711,47.852,20.996,38.086,26.855,22.461,0
1528296154.715,99.609,20.020,40.527,46.387,26.367,0
1528296154.719,84.961,18.555,35.645,27.344,19.531,0
1528296154.723,19.531,20.996,31.738,0.488,-11.719,0
1528296154.727,4.883,20.020,29.297,-0.977,-47.852,0
1528296154.731,79.102,21.973,33.691,20.508,28.320,0
1528296154.734,91.309,26.855,38.086,23.438,40.039,0
1528296154.738,26.855,26.367,32.715,2.441,17.578,0
1528296154.742,11.230,26.855,33.691,-1.953,64.453,0
1528296154.746,64.453,27.344,39.062,22.461,41.992,0
1528296154.750,100.098,27.344,32.227,37.598,24.902,0
1528296154.769,43.945,32.227,24.902,18.066,38.574,0
1528296154.773,-3.906,31.738,28.809,0.977,0.488,0
1528296154.777,36.621,19.531,32.227,16.113,32.715,0
1528296154.781,91.309,19.531,30.762,36.621,65.918,0
1528296154.785,54.688,26.855,32.715,26.367,49.805,0
1528296154.789,-1.953,30.762,41.992,17.090,29.785,0
1528296154.793,20.020,29.785,40.039,26.367,-21.484,0
1528296154.796,83.008,24.414,27.832,42.969,-19.531,0
1528296154.800,80.566,26.367,25.879,39.551,50.781,0
1528296154.804,20.508,32.715,29.297,18.066,35.156,0
1528296154.808,-12.207,32.715,34.180,12.207,17.090,0
1528296154.812,39.062,27.344,31.250,33.691,39.551,0
1528296154.809,65.918,26.367,23.926,39.062,5.371,0
1528296154.813,9.277,24.902,29.297,20.996,18.555,0
1528296154.817,-22.461,20.996,35.645,15.137,43.457,0
1528296154.821,20.996,20.996,39.551,30.762,24.902,0
1528296154.825,71.289,21.484,36.621,44.922,7.812,0
1528296154.829,30.273,23.926,39.551,31.250,32.227,0
1528296154.833,-18.066,24.902,38.086,14.648,33.691,0
1528296154.836,17.090,25.879,25.391,22.461,12.207,0
1528296154.840,67.383,22.949,26.855,41.504,45.898,0
1528296154.844,39.551,13.184,28.809,26.367,127.441,0
1528296154.848,-9.277,19.531,28.320,5.371,79.590,0
1528296154.852,-3.418,33.691,37.598,18.066,3.418,0
1528296154.848,61.523,30.762,40.039,36.133,75.195,0
1528296154.852,60.547,29.297,38.086,28.809,36.621,0
1528296154.856,5.859,33.691,36.133,9.277,0.977,0
1528296154.860,-8.789,33.203,32.715,1.953,0.977,0
1528296154.864,37.598,32.227,27.832,20.020,-22.949,0
1528296154.868,69.824,32.227,27.832,29.297,4.883,0
1528296154.872,15.137,29.785,29.297,8.301,7.812,0
1528296154.875,-23.926,29.297,25.879,-5.859,-13.672,0
1528296154.879,28.809,28.809,22.949,8.301,12.695,0
1528296154.883,83.008,26.367,23.438,31.738,51.270,0
1528296154.887,44.434,28.809,31.738,22.461,76.172,0
1528296154.891,-16.113,25.391,38.574,2.441,74.707,0
1528296154.910,2.441,22.949,36.621,13.184,11.230,0
1528296154.914,74.219,27.832,29.297,38.086,-11.719,0
1528296154.918,61.035,30.273,27.832,30.762,2.441,0
1528296154.922,-3.906,32.227,30.762,9.277,-7.812,0
1528296154.926,-5.859,30.273,25.879,11.719,-6.836,0
1528296154.930,54.199,26.855,28.320,30.273,22.949,0
1528296154.934,70.312,28.809,34.668,28.809,85.449,0
1528296154.937,12.207,26.855,29.297,3.906,93.262,0
1528296154.941,-26.367,24.414,28.320,-8.301,19.043,0
1528296154.945,31.250,29.785,29.785,12.695,62.500,0
1528296154.949,65.430,31.738,29.785,21.484,110.352,0
1528296154.953,8.789,31.250,27.344,0.488,63.965,0
1528296154.950,-23.438,31.738,31.250,-4.883,1.953,0
1528296154.954,18.066,32.227,31.250,10.254,2.441,0
1528296154.958,64.941,31.738,21.484,22.461,27.832,0
1528296154.962,20.996,26.855,21.973,8.789,41.016,0
1528296154.966,-34.180,24.902,23.438,-6.348,31.738,0
1528296154.970,-17.090,29.297,30.273,2.441,32.715,0
1528296154.974,51.270,28.809,38.574,23.438,64.453,0
1528296154.977,60.059,32.227,33.691,23.926,83.984,0
1528296154.981,0.000,38.574,36.621,2.441,45.410,0
1528296154.985,-20.020,37.109,40.527,-7.812,1.465,0
1528296154.989,41.016,31.250,28.320,12.695,9.277,0
1528296154.993,61.523,30.273,25.879,20.020,56.152,0
1528296155.010,4.883,32.227,36.133,-2.930,39.062,0
1528296155.014,-39.062,36.133,38.086,-20.020,-2.930,0
1528296155.018,2.441,41.016,33.691,-8.301,14.160,0
1528296155.022,40.039,41.992,24.414,-10.254,50.293,0
1528296155.026,-16.113,46.387,27.832,-37.109,0.977,0
1528296155.030,-68.848,50.293,33.203,-55.664,-12.695,0
1528296155.034,-52.246,46.875,27.832,-57.129,76.172,0
1528296155.037,-10.254,47.852,28.320,-56.152,59.082,0
1528296155.041,-37.109,54.688,32.227,-77.637,-14.160,0
1528296155.045,-100.098,52.246,28.320,-101.074,21.973,0
1528296155.049,-91.797,55.176,31.738,-92.773,30.762,0
1528296155.053,-27.832,57.129,35.645,-72.266,1.465,0
1528296155.050,-39.551,52.246,33.203,-77.148,14.160,0
1528296155.054,-103.027,49.805,37.109,-94.727,54.199,0
1528296155.058,-112.793,58.594,32.715,-100.586,21.973,0
1528296155.062,-54.688,52.246,34.180,-87.402,-3.906,0
1528296155.066,-34.668,39.062,39.551,-80.078,80.566,0
1528296155.070,-78.613,49.805,37.109,-83.984,104.004,0
1528296155.074,-111.816,52.246,40.039,-89.355,70.312,0
1528296155.077,-61.035,47.363,37.598,-68.359,57.129,0
1528296155.081,13.672,45.898,27.832,-34.668,-3.906,0
1528296155.085,-29.297,41.504,28.809,-39.551,-15.625,0
1528296155.089,-88.867,38.086,36.621,-50.293,-15.625,0
1528296155.093,-35.156,35.645,35.645,-26.855,16.113,0
1528296155.090,49.805,25.879,24.414,6.348,43.457,0
1528296155.094,35.156,19.043,27.832,3.418,27.832,0
1528296155.098,-15.625,18.555,36.621,-5.371,21.484,0
1528296155.102,-7.812,17.578,35.645,7.324,-0.977,0
1528296155.106,63.965,10.254,34.180,31.250,-9.766,0
1528296155.110,73.242,13.184,34.180,36.621,2.441,0
1528296155.114,12.207,18.555,34.668,21.973,39.062,0
1528296155.117,-0.488,18.555,32.227,19.043,21.973,0
1528296155.121,55.664,17.090,32.227,41.504,24.414,0
1528296155.125,88.379,10.254,36.133,55.176,85.449,0
1528296155.129,30.273,10.254,38.086,38.574,53.711,0
1528296155.133,-13.184,14.160,36.621,23.926,14.648,0
1528296155.149,47.363,5.859,34.180,42.480,38.086,0
1528296155.153,94.238,9.277,34.668,63.477,74.707,0
1528296155.157,50.781,17.578,33.691,50.293,38.086,0
1528296155.161,11.719,21.973,34.180,29.297,41.504,0
1528296155.165,32.227,22.461,35.156,38.086,19.043,0
1528296155.169,96.680,18.555,33.691,66.406,21.973,0
1528296155.173,90.332,19.531,34.668,62.012,66.406,0
1528296155.176,27.344,21.973,37.598,32.715,40.039,0
1528296155.180,23.438,20.996,35.156,26.855,16.113,0
1528296155.184,91.309,19.531,32.227,53.223,51.270,0
1528296155.188,101.074,20.996,31.250,56.152,29.785,0
1528296155.192,25.879,20.508,30.273,30.273,18.555,0
1528296155.189,-0.977,20.020,34.180,22.461,-1.953,0
1528296155.193,63.477,18.555,31.738,37.109,8.301,0
1528296155.197,97.168,16.113,29.785,47.852,73.730,0
1528296155.201,35.156,15.137,30.273,26.367,46.875,0
1528296155.205,-9.766,17.578,32.715,10.254,44.434,0
1528296155.209,30.762,24.414,32.715,24.414,8.301,0
1528296155.213,88.379,23.438,27.344,38.086,3.906,0
1528296155.216,58.594,22.949,24.902,20.020,26.855,0
1528296155.220,0.977,26.367,22.949,1.953,36.621,0
1528296155.224,20.020,14.648,20.020,18.066,0.488,0
1528296155.228,81.543,11.230,20.508,38.574,-29.297,0
1528296155.232,83.984,27.832,28.320,34.180,16.113,0
1528296155.230,26.855,27.832,32.227,20.508,-14.648,0
1528296155.234,2.441,24.414,28.809,20.020,-37.598,0
1528296155.238,62.500,26.855,29.297,45.410,36.133,0
1528296155.242,89.355,25.391,33.203,54.688,56.641,0
1528296155.246,29.297,25.879,41.504,33.691,-16.113,0
1528296155.250,-2.930,25.879,42.969,25.391,-2.930,0
1528296155.254,51.758,17.578,28.809,42.480,49.805,0
1528296155.257,96.191,11.230,24.902,52.734,81.543,0
1528296155.261,40.039,16.602,26.855,27.832,96.680,0
1528296155.265,-3.418,24.414,28.320,5.859,11.719,0
1528296155.269,36.621,30.273,31.738,24.414,-10.742,0
1528296155.273,90.332,26.855,30.273,48.828,36.621,0
1528296155.289,62.012,24.902,30.762,33.691,35.156,0
1528296155.293,-5.371,32.227,36.133,9.277,32.227,0
1528296155.297,-1.465,35.156,30.273,14.648,32.715,0
1528296155.301,71.289,27.344,22.949,37.598,49.316,0
1528296155.305,75.684,21.484,26.367,33.691,86.426,0
1528296155.309,12.207,35.156,29.785,15.137,73.730,0
1528296155.313,-9.766,39.062,31.250,15.137,2.930,0
1528296155.316,50.781,32.715,27.344,32.715,-40.039,0
1528296155.320,92.773,33.691,28.809,43.457,50.781,0
1528296155.324,41.504,31.738,35.645,31.738,42.480,0
1528296155.328,-0.488,27.832,30.273,19.531,-55.176,0
1528296155.332,35.156,25.391,27.344,29.785,34.668,0
1528296155.329,81.543,22.461,29.785,37.109,85.449,0
1528296155.333,35.645,28.809,36.133,17.090,20.020,0
1528296155.337,-21.973,31.738,41.504,0.000,-25.391,0
1528296155.341,9.277,31.738,38.086,10.742,42.969,0
1528296155.345,75.195,28.809,32.715,30.762,72.754,0
1528296155.349,51.270,24.902,31.250,25.391,44.922,0
1528296155.353,-11.719,26.367,34.180,8.301,-16.113,0
1528296155.356,-6.348,25.879,28.320,9.277,-2.441,0
1528296155.360,63.965,21.973,24.902,34.668,31.250,0
1528296155.364,72.266,20.996,32.227,41.992,46.387,0
1528296155.368,3.418,24.902,40.527,17.578,28.809,0
1528296155.372,-20.020,23.438,43.457,9.277,-0.488,0
1528296155.368,44.922,17.578,34.668,34.668,44.922,0
1528296155.372,85.449,17.578,27.832,44.434,-12.207,0
1528296155.376,29.785,26.367,31.738,25.391,-9.277,0
1528296155.380,-16.113,22.461,36.133,14.648,12.207,0
1528296155.384,28.320,12.207,35.156,28.809,-25.391,0
1528296155.388,87.402,22.461,32.227,47.363,31.250,0
1528296155.392,48.340,33.691,29.785,32.715,43.457,0
1528296155.395,-13.184,35.156,28.320,8.789,3.906,0
1528296155.399,-3.418,33.691,29.297,8.789,16.602,0
1528296155.403,66.406,30.273,29.297,23.438,12.695,0
1528296155.407,67.871,31.738,28.809,20.996,22.949,0
1528296155.411,0.488,35.645,34.180,4.883,24.414,0
1528296155.430,-14.648,35.156,34.180,4.395,14.160,0
1528296155.434,52.734,31.738,29.297,30.273,45.410,0
1528296155.438,72.266,26.367,28.809,36.621,23.438,0
1528296155.442,9.277,27.344,27.344,12.207,39.062,0
1528296155.446,-20.508,30.273,26.367,3.418,31.738,0
1528296155.450,33.691,28.320,28.320,24.414,-9.277,0
1528296155.454,71.289,30.762,30.273,37.109,-12.207,0
1528296155.457,20.996,34.668,27.832,15.625,-23.438,0
1528296155.461,-14.160,36.621,26.367,3.906,5.371,0
1528296155.465,21.973,32.227,30.273,22.461,65.918,0
1528296155.469,78.613,21.484,34.180,43.457,96.191,0
1528296155.473,37.598,21.484,31.738,28.809,81.055,0
1528296155.470,-29.297,31.738,28.809,9.766,36.133,0
1528296155.474,-11.230,33.691,27.832,17.578,-13.672,0
1528296155.478,58.105,28.809,25.879,37.598,-5.371,0
1528296155.482,60.547,33.203,23.438,35.156,11.230,0
1528296155.486,0.000,40.039,20.020,15.137,-28.320,0
1528296155.490,-16.602,36.621,19.043,8.789,-49.805,0
1528296155.494,49.316,32.227,18.066,29.785,-23.438,0
1528296155.497,80.566,36.133,19.531,35.156,28.809,0
1528296155.501,19.043,37.598,20.996,13.184,16.113,0
1528296155.505,-23.438,34.180,20.020,0.000,4.883,0
1528296155.509,26.855,33.203,17.578,8.301,95.703,0
1528296155.513,82.031,34.180,18.555,25.391,111.816,0
1528296155.510,37.109,34.668,24.414,12.695,31.250,0
1528296155.514,-16.113,27.832,25.879,-5.371,42.969,0
1528296155.518,13.184,24.902,26.367,7.812,32.227,0
1528296155.522,77.148,32.227,24.902,24.902,-11.230,0
1528296155.526,55.176,36.133,22.949,18.066,-9.277,0
1528296155.530,-16.602,35.156,26.855,1.953,-9.766,0
1528296155.534,-8.789,27.344,29.297,1.465,0.977,0
1528296155.537,64.941,24.902,23.926,21.973,34.668,0
1528296155.541,60.547,28.809,25.391,19.043,63.965,0
1528296155.545,-1.953,23.926,24.414,-3.418,5.859,0
1528296155.549,-14.648,22.949,20.508,-5.859,-12.695,0
1528296155.553,42.480,19.531,18.555,16.113,59.082,0
1528296155.570,65.918,13.184,20.508,29.785,62.500,0
1528296155.574,3.418,20.996,32.227,13.184,41.504,0
1528296155.578,-31.738,29.297,37.109,2.930,23.438,0
1528296155.582,26.855,30.762,35.645,22.949,23.926,0
1528296155.586,80.566,22.949,34.668,41.504,51.758,0
1528296155.590,30.762,21.484,36.621,27.344,45.898,0
1528296155.594,-28.320,25.879,37.598,8.789,9.277,0
1528296155.597,5.859,25.391,36.621,13.672,-23.438,0
1528296155.601,76.172,21.484,31.738,30.273,39.551,0
1528296155.605,56.641,20.996,31.250,20.508,81.055,0
1528296155.609,-1.953,24.902,37.109,1.465,2.441,0
1528296155.613,-10.742,25.391,31.738,0.977,23.926,0
1528296155.610,46.875,23.926,21.973,15.137,71.289,0
1528296155.614,67.871,28.809,25.391,21.973,38.574,0
1528296155.618,4.395,29.785,32.227,4.395,32.227,0
1528296155.622,-29.785,27.832,32.715,-8.789,61.523,0
1528296155.626,26.855,28.809,29.785,7.812,68.359,0
1528296155.630,68.359,28.320,27.832,13.672,13.184,0
1528296155.634,20.508,29.785,28.320,-9.277,26.367,0
1528296155.637,-29.785,17.090,27.344,-22.949,90.820,0
1528296155.641,9.277,15.625,25.879,-4.883,79.590,0
1528296155.645,62.012,28.320,26.367,15.137,37.109,0
1528296155.649,25.879,29.297,29.297,-2.441,10.742,0
1528296155.653,-13.672,30.762,31.250,-21.484,-23.926,0
1528296155.651,11.230,32.227,29.297,-5.371,0.977,0
1528296155.655,68.848,28.320,24.414,20.020,57.617,0
1528296155.659,55.176,28.320,26.367,16.602,-6.348,0
1528296155.663,-5.859,22.949,33.691,-1.953,-14.648,0
1528296155.667,-15.137,16.602,30.273,0.000,48.828,0
1528296155.671,45.898,23.926,21.973,19.043,56.152,0
1528296155.675,71.289,32.227,22.949,16.113,63.965,0
1528296155.678,7.812,36.621,32.715,-1.953,48.828,0
1528296155.682,-34.668,37.109,33.691,-9.277,8.301,0
1528296155.686,23.926,32.227,27.344,8.789,-2.441,0
1528296155.690,75.195,31.738,30.273,31.250,45.898,0
1528296155.694,27.832,33.203,31.250,14.648,65.918,0
1528296155.710,-30.273,28.809,27.832,-5.371,-3.906,0
1528296155.714,-1.953,26.855,25.391,5.859,-23.926,0
1528296155.718,70.312,27.344,21.973,23.438,51.758,0
1528296155.722,54.199,25.391,24.414,14.160,47.852,0
1528296155.726,-18.066,29.297,26.367,-5.859,18.066,0
1528296155.730,-14.648,33.203,22.461,-6.836,49.316,0
1528296155.734,56.152,27.344,24.414,12.695,34.668,0
1528296155.737,63.477,22.461,29.297,11.230,29.297,0
1528296155.741,3.906,31.738,24.902,-7.812,19.531,0
1528296155.745,-18.555,37.109,24.414,-11.719,-45.898,0
1528296155.749,45.410,39.062,24.414,12.207,10.254,0
1528296155.753,62.012,39.551,19.043,20.508,11.230,0
1528296155.750,1.953,35.645,22.949,0.000,-38.086,0
1528296155.754,-26.367,32.227,27.344,-7.812,11.230,0
1528296155.758,23.438,28.809,24.414,6.348,27.832,0
1528296155.762,78.613,30.273,20.996,13.672,76.172,0
1528296155.766,30.762,30.273,18.066,-1.465,91.797,0
1528296155.770,-25.391,29.297,20.508,-6.348,11.230,0
1528296155.774,9.277,28.320,28.320,12.695,3.906,0
1528296155.777,68.359,23.926,29.785,32.715,51.758,0
1528296155.781,51.758,24.414,29.297,27.344,38.086,0
1528296155.785,-11.719,28.320,31.738,14.160,11.719,0
1528296155.789,-18.066,27.344,28.809,15.137,-49.316,0
1528296155.793,52.246,25.391,18.555,34.180,6.836,0
1528296155.790,68.359,24.902,13.672,36.133,84.961,0
1528296155.794,12.695,24.414,20.020,17.090,77.637,0
1528296155.798,-21.973,28.809,30.762,11.230,39.551,0
1528296155.802,34.668,24.902,34.668,34.668,72.754,0
1528296155.806,83.984,22.949,31.738,45.898,97.656,0
1528296155.810,31.738,32.227,32.227,24.414,38.574,0
1528296155.814,-11.230,34.180,33.691,10.742,59.570,0
1528296155.817,27.832,30.762,26.855,21.484,35.156,0
1528296155.821,80.078,33.203,21.484,31.738,-5.371,0
1528296155.825,45.898,33.691,23.438,17.090,40.039,0
1528296155.829,-8.789,29.785,25.879,1.953,64.453,0
1528296155.833,13.184,32.715,30.273,12.207,57.617,0
1528296155.850,72.754,36.133,27.832,32.227,-15.625,0
1528296155.854,59.082,33.691,25.879,23.926,-12.695,0
1528296155.858,0.977,28.809,32.227,10.254,17.090,0
1528296155.862,8.789,29.785,31.738,25.391,36.621,0
1528296155.866,59.570,32.227,24.902,31.738,118.164,0
1528296155.870,41.016,35.156,27.832,8.789,49.316,0
1528296155.874,-36.621,37.598,33.203,-15.625,-24.902,0
1528296155.877,-59.082,33.203,32.227,-20.996,29.297,0
1528296155.881,6.348,32.227,27.832,5.371,53.711,0
1528296155.885,46.387,33.203,28.320,20.508,24.902,0
1528296155.889,-13.672,30.273,30.273,4.395,40.039,0
1528296155.893,-60.059,28.809,25.391,-12.207,26.855,0
1528296155.890,-8.789,22.461,22.461,1.953,14.160,0
1528296155.894,54.199,17.578,28.809,24.902,23.926,0
1528296155.898,21.484,27.344,33.203,16.602,38.086,0
1528296155.902,-35.645,33.203,33.691,-2.441,44.434,0
1528296155.906,-15.625,32.715,33.203,1.465,31.738,0
1528296155.910,52.734,29.785,26.855,23.926,83.984,0
1528296155.914,44.922,28.809,26.367,20.508,118.164,0
1528296155.917,-11.719,28.809,29.785,0.488,71.777,0
1528296155.921,-10.254,30.762,26.367,-1.465,35.156,0
1528296155.925,47.363,35.156,24.414,20.508,69.824,0
1528296155.929,67.383,32.715,22.461,25.391,68.848,0
1528296155.933,19.531,28.809,18.555,1.465,65.430,0
1528296155.930,-16.113,30.762,21.484,-5.371,51.758,0
1528296155.934,29.785,30.273,18.066,19.043,-18.066,0
1528296155.938,75.684,28.320,16.113,33.691,-9.277,0
1528296155.942,17.578,26.855,26.367,14.160,53.223,0
1528296155.946,-40.527,29.785,28.320,-2.441,52.246,0
1528296155.950,0.000,34.668,28.809,14.648,0.000,0
1528296155.954,69.336,32.715,32.227,40.527,-11.230,0
1528296155.957,37.598,29.297,32.715,24.414,70.801,0
1528296155.961,-30.762,23.926,31.738,-5.371,77.637,0
1528296155.965,-21.973,19.531,23.926,-4.395,-22.461,0
1528296155.969,49.316,12.695,17.090,20.020,13.184,0
1528296155.973,56.641,12.207,21.484,28.320,68.359,0
1528296155.988,-10.742,30.273,30.762,12.207,0.488,0
1528296155.992,-23.438,39.062,31.250,5.859,1.953,0
1528296155.996,41.504,34.668,29.785,25.391,66.406,0
1528296156.000,64.941,36.133,31.250,30.762,33.691,0
1528296156.004,0.488,35.645,29.297,11.719,40.527,0
1528296156.008,-47.852,30.762,24.902,0.000,75.684,0
1528296156.012,-1.953,30.273,23.926,11.719,41.016,0
1528296156.015,63.477,30.273,20.020,28.320,44.434,0
1528296156.019,20.508,29.297,19.043,14.648,3.906,0
1528296156.023,-39.062,30.273,22.949,-0.488,-8.789,0
1528296156.027,-4.395,28.320,25.391,15.137,-8.301,0
1528296156.031,68.359,26.367,23.926,30.762,-12.207,0
1528296156.030,48.340,29.297,27.344,18.066,33.203,0
1528296156.034,-15.625,33.203,33.203,0.977,25.391,0
1528296156.038,-14.160,27.832,27.344,3.418,36.621,0
1528296156.042,50.781,24.902,18.555,23.438,37.598,0
1528296156.046,64.453,22.949,18.555,22.949,42.969,0
1528296156.050,0.000,18.555,22.949,-0.488,54.199,0
1528296156.054,-30.273,15.137,25.391,-6.836,40.527,0
1528296156.057,37.109,18.555,26.367,14.648,28.320,0
1528296156.061,83.496,25.391,24.414,30.762,22.461,0
1528296156.065,11.719,25.879,24.414,12.695,36.133,0
1528296156.069,-33.691,25.391,26.855,-2.930,-21.484,0
1528296156.073,31.738,25.391,27.344,20.020,0.977,0
1528296156.071,86.426,24.902,33.691,44.922,73.242,0
1528296156.075,39.551,25.391,33.691,30.273,62.012,0
1528296156.079,-20.996,29.785,25.879,15.137,43.457,0
1528296156.083,2.930,31.738,20.996,27.344,37.598,0
1528296156.087,72.754,25.391,26.367,45.898,14.160,0
1528296156.091,59.570,23.926,35.645,41.016,17.578,0
1528296156.095,-2.441,24.902,35.156,18.555,47.363,0
1528296156.098,-9.277,20.020,35.156,11.230,36.621,0
1528296156.102,50.293,18.555,28.809,31.738,38.086,0
1528296156.106,77.637,24.414,24.902,36.621,55.176,0
1528296156.110,17.578,25.391,30.273,19.043,46.387,0
1528296156.114,-15.625,22.461,32.715,9.277,59.570,0
1528296156.130,52.734,24.414,36.621,26.855,66.895,0
1528296156.134,99.121,26.367,34.180,37.109,89.355,0
1528296156.138,27.344,22.949,31.738,17.090,24.414,0
1528296156.142,-31.250,21.973,40.527,4.395,-32.715,0
1528296156.146,10.742,24.902,44.922,22.949,13.184,0
1528296156.150,59.082,23.926,32.715,43.457,27.832,0
1528296156.154,21.484,27.832,24.414,23.438,7.324,0
1528296156.157,-28.320,29.785,32.715,3.418,30.273,0
1528296156.161,-8.789,26.367,39.062,17.090,38.086,0
1528296156.165,66.895,25.879,36.621,39.551,25.879,0
1528296156.169,63.477,30.273,37.109,37.598,55.664,0
1528296156.173,-7.812,30.273,40.527,13.184,-20.996,0
1528296156.170,-19.531,29.297,36.621,6.836,-53.223,0
1528296156.174,43.457,31.250,32.227,27.832,30.762,0
1528296156.178,68.848,31.250,35.156,33.691,49.805,0
1528296156.182,7.324,29.297,38.086,16.602,50.293,0
1528296156.186,-29.297,27.344,34.668,9.766,55.176,0
1528296156.190,22.461,26.367,35.156,29.785,41.992,0
1528296156.194,65.918,28.809,41.016,45.898,-3.906,0
1528296156.197,24.414,20.996,42.969,28.809,-24.902,0
1528296156.201,-15.137,17.578,42.480,12.695,-34.668,0
1528296156.205,12.695,23.438,40.527,21.973,-7.812,0
1528296156.209,74.219,24.414,38.574,36.133,60.059,0
1528296156.213,53.223,28.809,41.504,31.738,78.613,0
1528296156.209,-17.578,23.926,39.062,15.137,20.996,0
1528296156.213,-20.020,21.973,34.668,16.113,12.207,0
1528296156.217,42.969,24.414,38.086,37.598,45.410,0
1528296156.221,44.434,27.344,41.504,34.180,6.836,0
1528296156.225,-17.578,32.227,41.504,18.066,-4.883,0
1528296156.229,-33.691,35.156,41.992,18.066,-33.203,0
1528296156.233,37.109,32.227,39.551,41.016,-59.570,0
1528296156.236,71.289,28.809,36.133,49.805,22.949,0
1528296156.240,8.789,29.297,39.551,24.902,51.270,0
1528296156.244,-30.273,25.879,38.086,13.184,20.996,0
1528296156.248,19.531,21.973,35.645,30.762,9.277,0
1528296156.252,74.707,19.531,35.156,48.340,9.277,0
1528296156.270,40.527,21.484,40.527,36.133,63.477,0
1528296156.274,-5.371,18.066,41.992,16.602,85.449,0
1528296156.278,12.207,12.695,33.691,22.949,58.105,0
1528296156.282,73.730,24.414,30.762,46.875,49.805,0
1528296156.286,56.152,36.133,33.203,39.551,20.020,0
1528296156.290,-17.090,37.109,32.715,19.531,-16.113,0
1528296156.294,-16.602,35.156,25.879,19.043,-53.711,0
1528296156.297,59.082,34.180,23.438,38.086,-52.734,0
1528296156.301,71.289,31.250,26.367,41.992,10.254,0
1528296156.305,5.371,32.715,28.320,17.090,35.156,0
1528296156.309,-23.926,36.621,33.691,5.859,-1.953,0
1528296156.313,36.621,31.250,27.832,25.879,14.160,0
1528296156.310,76.660,28.320,22.461,40.039,70.312,0
1528296156.314,16.113,28.320,26.367,21.973,78.613,0
1528296156.318,-27.832,24.902,24.414,3.418,15.625,0
1528296156.322,6.348,27.832,24.414,15.137,28.320,0
1528296156.326,57.129,25.391,29.297,32.227,46.875,0
1528296156.330,31.250,28.320,29.297,16.113,-58.594,0
1528296156.334,-31.250,30.762,31.250,-2.441,-60.059,0
1528296156.337,-19.043,24.902,30.273,8.789,14.160,0
1528296156.341,45.898,17.090,21.973,33.203,8.789,0
1528296156.345,39.062,18.066,29.785,23.438,22.461,0
1528296156.349,-12.695,28.809,40.039,0.977,10.742,0
1528296156.353,-21.484,27.832,35.156,2.930,56.641,0
1528296156.349,42.969,26.367,30.273,22.949,104.004,0
1528296156.353,67.871,30.762,33.203,32.715,86.914,0
1528296156.357,1.465,27.344,33.691,16.602,29.297,0
1528296156.361,-34.180,24.414,32.715,8.301,-14.648,0
1528296156.365,26.367,27.832,31.738,25.879,12.207,0
1528296156.369,78.613,26.855,31.250,36.621,12.695,0
1528296156.373,30.762,28.809,36.621,18.555,6.836,0
1528296156.376,-26.367,32.715,35.645,2.441,55.176,0
1528296156.380,7.812,31.738,25.879,12.207,68.359,0
1528296156.384,75.195,30.273,18.555,33.691,59.570,0
1528296156.388,46.387,28.320,24.414,21.973,69.824,0
1528296156.392,-14.648,24.414,26.367,0.977,21.973,0
1528296156.410,-5.859,27.344,24.414,7.324,39.062,0
1528296156.414,70.801,25.879,25.879,32.715,49.316,0
1528296156.418,80.078,18.066,30.762,37.598,74.219,0
1528296156.422,13.672,28.320,33.691,18.555,61.035,0
1528296156.426,-13.184,36.621,29.297,12.695,-18.555,0
1528296156.430,38.086,32.715,22.949,28.809,50.293,0
1528296156.434,67.871,36.133,29.297,35.645,75.684,0
1528296156.437,8.301,40.039,37.598,20.996,19.043,0
1528296156.441,-28.320,36.133,30.762,8.301,2.441,0
1528296156.445,26.855,23.438,26.367,24.902,11.230,0
1528296156.449,64.453,17.578,28.320,42.969,30.273,0
1528296156.453,13.184,25.879,27.832,23.926,1.953,0
1528296156.450,-32.715,27.832,28.809,10.254,-1.953,0
1528296156.454,-3.418,24.414,32.227,25.391,9.277,0
1528296156.458,61.523,20.996,33.203,43.457,49.805,0
1528296156.462,43.457,25.391,29.297,37.598,73.242,0
1528296156.466,-13.184,20.508,30.762,19.531,45.898,0
1528296156.470,-9.277,15.137,33.691,17.578,17.578,0
1528296156.474,51.758,23.926,30.273,40.039,47.852,0
1528296156.477,61.523,20.020,32.227,41.504,60.059,0
1528296156.481,-7.812,16.113,38.574,19.043,67.871,0
1528296156.485,-32.715,29.297,39.062,11.719,46.387,0
1528296156.489,40.039,27.344,33.691,34.180,9.277,0
1528296156.493,75.195,27.832,33.691,41.992,-23.438,0
1528296156.489,16.602,33.203,30.762,11.230,-47.852,0
1528296156.493,-24.902,34.668,25.391,0.488,-11.719,0
1528296156.497,26.367,31.738,28.320,23.926,8.789,0
1528296156.501,88.379,30.762,30.273,41.016,60.547,0
1528296156.505,49.805,32.227,32.227,25.391,66.895,0
1528296156.509,-10.742,29.785,41.504,12.695,29.785,0
1528296156.513,10.742,36.133,43.945,23.438,34.180,0
1528296156.516,64.941,33.203,25.879,37.598,75.195,0
1528296156.520,47.852,29.785,19.531,24.414,62.500,0
1528296156.524,-8.789,31.738,25.879,3.418,46.875,0
1528296156.528,-11.230,31.738,29.785,7.324,80.078,0
1528296156.532,59.570,26.367,35.156,31.738,86.914,0
1528296156.550,76.660,17.090,39.062,39.062,48.340,0
1528296156.554,8.789,20.508,41.992,20.996,-1.465,0
1528296156.558,-28.320,28.809,40.039,15.625,-13.672,0
1528296156.562,24.414,24.414,34.668,36.133,1.953,0
1528296156.566,65.430,19.043,29.297,49.316,31.250,0
1528296156.570,11.719,24.902,28.809,25.879,4.395,0
1528296156.574,-35.156,27.344,34.668,8.789,-11.230,0
1528296156.577,7.812,27.344,33.691,25.879,64.941,0
1528296156.581,67.383,31.250,24.414,43.457,95.215,0
1528296156.585,27.344,31.250,30.762,30.273,32.227,0
1528296156.589,-43.945,22.461,36.133,7.812,-2.930,0
1528296156.593,-18.066,18.066,29.785,12.207,-14.160,0
1528296156.590,64.941,23.438,25.391,37.109,4.395,0
1528296156.594,53.711,27.344,27.344,32.715,36.621,0
1528296156.598,-12.207,28.809,29.785,13.672,22.461,0
1528296156.602,-20.020,26.367,28.809,10.742,-2.930,0
1528296156.606,56.152,16.113,30.762,31.250,35.156,0
1528296156.610,83.984,20.996,31.738,37.109,57.617,0
1528296156.614,18.066,38.086,23.926,9.277,8.301,0
1528296156.617,-16.602,42.480,24.902,-1.953,-5.371,0
1528296156.621,31.250,41.504,29.785,21.973,7.812,0
1528296156.625,78.125,37.109,20.020,31.738,47.363,0
1528296156.629,39.551,33.691,12.695,6.348,82.031,0
1528296156.633,-17.090,31.738,23.438,-9.277,50.781,0
1528296156.670,0.977,23.926,33.203,9.277,11.719,0
1528296156.674,57.617,20.996,34.668,34.668,31.738,0
1528296156.678,38.574,27.344,31.738,32.227,26.367,0
1528296156.682,-19.531,29.297,28.320,12.695,-11.719,0
1528296156.686,-14.160,28.320,34.180,10.742,-31.738,0
1528296156.690,55.664,27.344,41.016,35.156,34.668,0
1528296156.694,55.176,23.438,40.039,40.039,24.414,0
1528296156.697,-13.672,18.555,41.016,16.113,-36.133,0
1528296156.701,-18.555,16.602,37.109,9.766,23.438,0
1528296156.705,43.457,23.926,29.297,32.227,36.621,0
1528296156.709,63.965,26.367,27.344,40.039,74.219,0
1528296156.713,-1.953,31.738,32.715,20.996,77.148,0
1528296156.690,-48.340,35.645,37.109,9.277,25.391,0
1528296156.694,5.859,29.785,34.180,24.414,5.859,0
1528296156.698,64.453,25.879,33.203,39.062,67.383,0
1528296156.702,20.020,26.367,31.738,15.625,47.363,0
1528296156.706,-30.273,23.438,29.785,-1.465,7.324,0
1528296156.710,8.301,25.879,28.320,17.090,56.641,0
1528296156.714,69.824,29.297,28.809,34.668,28.320,0
1528296156.717,44.434,27.344,37.109,20.996,17.578,0
1528296156.721,-14.160,27.832,37.109,-1.953,38.574,0
1528296156.725,-13.672,27.344,30.273,0.977,19.043,0
1528296156.729,55.176,26.367,30.762,24.902,5.859,0
1528296156.733,70.801,28.809,30.273,23.926,58.594,0
1528296156.730,13.672,33.203,30.273,7.812,43.457,0
1528296156.734,-10.742,29.785,33.691,5.371,-3.418,0
1528296156.738,42.480,25.391,27.344,24.902,-0.977,0
1528296156.742,65.430,28.320,24.414,35.645,61.523,0
1528296156.746,7.812,31.738,24.414,16.113,62.500,0
1528296156.750,-27.832,35.156,22.461,2.930,51.270,0
1528296156.754,11.719,37.109,25.391,16.602,32.227,0
1528296156.757,81.543,33.203,20.020,38.086,17.090,0
1528296156.761,37.598,24.414,20.508,22.461,13.672,0
1528296156.765,-31.250,28.320,30.762,1.953,37.109,0
1528296156.769,0.000,30.273,35.156,15.137,36.621,0
1528296156.773,54.688,26.855,36.621,35.156,40.039,0
1528296156.790,37.598,35.156,36.133,28.320,31.738,0
1528296156.794,-22.949,31.250,28.320,12.695,31.250,0
1528296156.798,-32.227,21.973,22.949,16.113,18.066,0
1528296156.802,33.203,22.949,25.391,34.668,13.184,0
1528296156.806,48.828,22.461,25.879,29.785,61.523,0
1528296156.810,-15.625,22.949,31.250,7.324,66.895,0
1528296156.814,-46.387,28.809,36.621,1.465,15.625,0
1528296156.817,11.230,28.320,32.227,17.578,43.945,0
1528296156.821,70.801,22.949,31.250,35.645,107.422,0
1528296156.825,27.832,22.949,35.156,27.344,56.641,0
1528296156.829,-15.137,27.344,38.086,18.555,16.113,0
1528296156.833,21.973,33.203,33.691,35.645,12.207,0
1528296156.830,75.684,33.203,24.902,40.039,34.668,0
1528296156.834,48.828,38.086,24.414,10.742,45.410,0
1528296156.838,-8.301,40.039,29.297,-15.137,24.902,0
1528296156.842,0.000,37.109,33.203,-10.742,12.207,0
1528296156.846,57.129,34.668,32.715,11.719,0.488,0
1528296156.850,51.270,37.598,33.203,7.324,19.531,0
1528296156.854,-8.789,40.527,31.738,-11.230,3.906,0
1528296156.857,-11.230,40.039,20.996,-8.789,39.062,0
1528296156.861,52.734,35.645,19.043,14.648,40.527,0
1528296156.865,58.105,29.785,29.297,19.531,20.020,0
1528296156.869,-11.230,28.320,34.180,-1.465,18.555,0
1528296156.873,-35.156,22.949,29.785,-7.812,36.133,0
1528296156.870,11.230,17.578,27.832,15.625,32.715,0
1528296156.874,52.246,13.672,33.691,33.203,37.109,0
1528296156.878,10.254,12.207,41.016,20.508,20.996,0
1528296156.882,-38.086,11.230,47.852,9.277,-31.738,0
1528296156.886,-0.977,4.395,45.410,27.344,-23.926,0
1528296156.890,62.012,3.418,45.410,57.129,20.020,0
1528296156.894,47.363,5.859,53.223,57.617,54.688,0
1528296156.897,-0.977,1.465,59.570,41.992,75.195,0
1528296156.901,-8.301,-1.953,60.059,43.945,45.410,0
1528296156.905,61.523,0.977,59.082,73.242,14.648,0
1528296156.909,89.355,-1.465,62.500,86.914,-27.344,0
1528296156.913,34.668,0.488,62.988,67.871,-40.527,0
1528296156.930,17.578,4.395,62.500,61.523,31.738,0
1528296156.934,72.266,2.930,58.594,76.172,58.594,0
1528296156.938,102.539,3.906,53.223,76.660,40.039,0
1528296156.942,54.199,9.277,54.199,59.082,25.391,0
1528296156.946,15.137,12.695,51.758,49.316,1.953,0
1528296156.950,51.270,8.789,46.875,67.383,18.555,0
1528296156.954,89.355,12.207,45.898,83.496,-0.488,0
1528296156.957,42.480,16.113,47.363,65.918,-4.395,0
1528296156.961,-4.883,16.113,46.387,51.270,10.254,0
1528296156.965,18.555,9.277,43.945,57.617,30.273,0
1528296156.969,77.637,4.395,42.480,72.754,9.277,0
1528296156.973,66.895,17.578,46.387,63.477,38.574,0
1528296156.971,15.625,23.438,51.270,41.992,44.434,0
1528296156.975,9.277,21.973,46.875,33.691,-31.738,0
1528296156.979,69.336,20.996,35.156,45.410,26.855,0
1528296156.983,87.891,22.949,33.203,49.316,51.270,0
1528296156.987,24.414,26.367,40.527,27.344,8.789,0
1528296156.991,-13.672,21.484,38.574,12.207,-1.465,0
1528296156.995,36.133,16.113,32.227,28.320,47.363,0
1528296156.998,82.520,17.578,31.250,47.852,88.867,0
1528296157.002,38.086,19.531,34.668,29.785,87.891,0
1528296157.006,-9.277,18.555,41.016,16.113,22.949,0
1528296157.010,20.996,14.160,40.527,31.250,14.648,0
1528296157.014,83.008,12.695,35.156,45.898,100.098,0
1528296157.010,47.363,16.602,37.109,32.227,20.020,0
1528296157.014,-14.648,19.043,40.039,12.695,-33.691,0
1528296157.018,3.418,19.531,39.062,20.996,-9.766,0
1528296157.022,75.684,19.531,37.598,46.387,27.832,0
1528296157.026,83.008,22.461,38.574,40.039,39.551,0
1528296157.030,11.230,28.320,39.551,16.602,11.719,0
1528296157.034,-12.207,29.785,38.574,12.207,4.883,0
1528296157.037,58.594,27.344,35.156,35.645,27.832,0
1528296157.041,79.102,27.344,35.156,39.062,70.801,0
1528296157.045,20.996,31.738,39.551,10.742,25.879,0
1528296157.049,-11.230,29.297,38.086,4.395,0.977,0
1528296157.053,33.691,25.391,30.762,24.414,12.695,0
1528296157.070,77.148,24.902,32.227,39.062,40.527,0
1528296157.074,31.738,20.508,31.738,23.438,6.348,0
1528296157.078,-12.695,21.973,27.832,6.348,0.488,0
1528296157.082,22.949,26.367,32.715,14.160,56.641,0
1528296157.086,83.496,24.902,29.297,37.598,30.762,0
1528296157.090,61.035,26.855,30.762,41.504,23.438,0
1528296157.094,-11.719,26.855,42.480,10.254,21.484,0
1528296157.097,-14.160,24.902,41.992,-7.324,11.719,0
1528296157.101,61.523,22.949,34.180,18.066,28.320,0
1528296157.105,59.082,18.555,31.250,20.020,55.664,0
1528296157.109,1.953,20.020,37.109,3.418,48.340,0
1528296157.113,-16.602,22.949,36.621,6.348,-34.180,0
1528296157.110,40.039,21.484,31.738,27.832,33.203,0
1528296157.114,77.148,21.484,38.574,40.039,94.238,0
1528296157.118,21.484,24.414,41.992,23.438,57.129,0
1528296157.122,-10.254,26.855,38.574,11.719,34.668,0
1528296157.126,40.039,20.996,36.133,27.832,27.344,0
1528296157.130,80.078,17.578,36.621,44.434,78.125,0
1528296157.134,22.461,20.996,44.434,30.273,56.641,0
1528296157.137,-28.320,22.949,45.410,18.066,-22.949,0
1528296157.141,18.555,24.902,43.457,37.109,-15.625,0
1528296157.145,66.406,24.414,40.527,49.316,23.926,0
1528296157.149,22.949,26.367,39.062,31.738,38.574,0
1528296157.153,-15.137,21.484,42.969,20.020,31.250,0
1528296157.150,0.488,17.090,44.434,30.273,-17.578,0
1528296157.154,61.035,24.902,44.434,52.734,9.277,0
1528296157.158,66.895,35.645,48.828,58.105,18.066,0
1528296157.162,9.766,41.016,52.246,33.691,44.434,0
1528296157.166,-4.395,37.109,43.945,22.461,46.387,0
1528296157.170,53.711,34.180,33.691,44.922,2.441,0
1528296157.174,85.449,29.785,31.250,55.664,19.043,0
1528296157.177,27.344,29.297,37.109,33.691,57.129,0
1528296157.181,-19.043,31.250,44.922,17.578,57.617,0
1528296157.185,27.832,24.902,43.945,34.668,35.156,0
1528296157.189,86.426,22.949,37.109,53.711,68.359,0
1528296157.193,54.688,22.949,36.621,41.504,62.988,0
1528296157.210,3.906,27.344,45.898,25.391,10.742,0
1528296157.214,27.832,28.320,40.039,34.180,38.086,0
1528296157.218,89.355,25.391,35.156,55.664,54.688,0
1528296157.222,58.594,26.855,47.852,52.734,7.324,0
1528296157.226,-7.812,27.344,52.734,33.203,-12.207,0
1528296157.230,-9.277,22.949,54.199,31.738,24.414,0
1528296157.234,43.945,19.043,43.945,43.457,41.504,0
1528296157.237,43.945,21.973,37.598,33.203,35.645,0
1528296157.241,-27.832,24.414,49.316,4.883,101.562,0
1528296157.245,-52.734,16.113,46.875,9.766,97.168,0
1528296157.249,8.789,20.020,37.109,28.320,31.738,0
1528296157.253,20.020,37.109,43.945,0.977,25.391,0
1528296157.250,-63.965,41.016,43.457,-52.734,41.992,0
1528296157.254,-125.977,39.062,31.738,-88.867,74.707,0
1528296157.258,-103.027,49.805,26.367,-101.562,5.371,0
1528296157.262,-59.082,59.570,24.902,-113.281,-12.695,0
1528296157.266,-106.934,68.359,20.996,-147.949,57.617,0
1528296157.270,-183.594,76.660,15.137,-184.082,16.113,0
1528296157.274,-179.688,80.078,6.836,-191.895,-10.254,0
1528296157.277,-122.070,89.844,-3.906,-188.477,17.090,0
1528296157.281,-117.676,84.961,-2.930,-190.430,38.086,0
1528296157.285,-186.523,82.520,-3.418,-215.332,25.879,0
1528296157.289,-211.914,87.402,-7.324,-219.727,53.223,0
1528296157.293,-125.977,88.867,-11.719,-178.223,69.824,0
1528296157.288,-99.609,92.285,-16.602,-173.828,62.012,0
1528296157.292,-147.949,90.820,-11.719,-168.457,39.551,0
1528296157.296,-161.621,95.215,-18.555,-155.762,-16.113,0
1528296157.300,-99.609,81.055,-25.391,-130.371,21.484,0
1528296157.304,-17.578,65.430,-16.602,-82.031,51.758,0
1528296157.308,-60.547,70.312,-6.836,-91.309,-8.301,0
1528296157.312,-111.816,69.824,-2.930,-101.562,-42.969,0
1528296157.315,-59.570,56.152,-3.418,-56.641,1.953,0
1528296157.319,2.930,35.645,-0.488,-26.855,68.848,0
1528296157.323,3.906,35.156,4.883,-25.879,49.805,0
1528296157.327,-37.109,45.410,10.254,-21.484,14.160,0
1528296157.331,-26.855,42.480,13.672,-7.812,13.184,0
1528296157.351,54.199,41.504,13.672,22.461,-7.812,0
1528296157.355,60.547,37.598,16.602,26.367,0.000,0
1528296157.359,2.930,30.762,16.602,10.254,1.465,0
1528296157.363,-6.348,28.809,15.137,14.160,-3.906,0
1528296157.367,61.523,22.949,11.719,42.480,42.969,0
1528296157.371,102.051,22.949,15.137,60.059,67.871,0
1528296157.375,42.969,28.320,25.391,43.457,38.574,0
1528296157.378,10.742,28.809,24.902,33.203,0.488,0
1528296157.382,69.824,26.855,13.184,47.852,-4.395,0
1528296157.386,126.465,25.879,13.672,62.988,8.301,0
1528296157.390,80.078,21.973,20.996,49.805,34.668,0
1528296157.394,17.090,21.973,22.461,33.203,-11.230,0
1528296157.391,43.457,22.461,14.160,40.039,-15.625,0
1528296157.395,113.281,21.484,12.207,66.895,28.320,0
1528296157.399,92.773,23.438,23.438,68.848,7.812,0
1528296157.403,23.438,24.414,24.414,49.805,20.508,0
1528296157.407,32.715,26.367,21.484,46.875,26.855,0
1528296157.411,93.262,22.461,20.508,64.941,54.688,0
1528296157.415,92.773,22.949,20.508,67.871,6.836,0
1528296157.418,41.504,16.113,23.926,49.316,-48.828,0
1528296157.422,26.367,10.254,24.902,37.598,-21.484,0
1528296157.426,64.941,20.020,22.461,54.199,-4.883,0
1528296157.430,92.773,25.391,18.555,68.848,24.902,0
1528296157.434,47.363,29.785,20.996,51.758,44.434,0
1528296157.431,3.418,29.785,26.367,41.992,43.457,0
1528296157.435,51.758,27.832,24.414,60.547,66.406,0
1528296157.439,110.840,26.855,25.391,79.102,62.012,0
1528296157.443,80.566,26.367,29.785,65.918,36.133,0
1528296157.447,24.902,25.879,32.715,45.898,-2.441,0
1528296157.451,38.086,23.926,29.785,50.781,0.488,0
1528296157.455,109.863,23.926,25.879,70.801,59.082,0
1528296157.458,99.609,29.297,32.227,71.289,49.805,0
1528296157.462,29.785,29.297,31.250,41.504,42.969,0
1528296157.466,31.250,27.344,26.855,31.250,31.250,0
1528296157.470,104.004,24.414,27.344,59.570,15.137,0
1528296157.474,124.023,23.926,20.996,68.359,69.336,0
1528296157.491,59.570,29.785,28.320,49.805,88.867,0
1528296157.495,31.738,27.344,38.574,41.504,50.293,0
1528296157.499,85.938,24.414,39.062,62.500,34.668,0
1528296157.503,119.629,26.367,37.109,70.801,45.898,0
1528296157.507,56.152,26.367,32.715,45.410,36.133,0
1528296157.511,8.301,20.020,33.691,31.738,-9.766,0
1528296157.515,53.711,20.020,35.156,39.551,8.789,0
1528296157.518,108.887,28.320,31.250,57.129,10.254,0
1528296157.522,73.730,32.227,35.156,52.246,-24.414,0
1528296157.526,11.719,31.738,37.109,32.227,36.133,0
1528296157.530,15.625,30.273,35.645,36.621,26.855,0
1528296157.534,79.102,26.367,34.180,57.617,37.598,0
1528296157.531,77.637,23.438,34.668,57.129,58.105,0
1528296157.535,8.789,26.855,35.156,37.598,-8.301,0
1528296157.539,-6.836,25.879,33.691,30.273,-23.438,0
1528296157.543,59.082,22.949,33.691,53.711,-9.277,0
1528296157.547,78.125,20.508,33.691,62.500,5.371,0
1528296157.551,14.648,22.949,33.691,38.574,36.621,0
1528296157.555,-12.207,24.414,35.645,26.855,-16.602,0
1528296157.558,44.922,20.508,34.180,42.480,-12.695,0
1528296157.562,97.656,19.531,30.762,56.152,30.762,0
1528296157.566,43.457,27.344,39.062,39.551,-14.648,0
1528296157.570,-4.883,30.273,43.945,18.555,7.812,0
1528296157.574,37.598,30.762,28.809,25.391,48.828,0
1528296157.590,99.121,33.203,23.926,44.434,57.129,0
1528296157.594,72.754,32.715,32.715,33.203,41.992,0
1528296157.598,9.766,28.809,34.180,9.766,-16.602,0
1528296157.602,20.508,21.484,32.227,15.625,23.438,0
1528296157.606,82.031,24.902,32.227,39.062,82.031,0
1528296157.610,79.102,35.645,33.203,30.762,45.898,0
1528296157.614,21.484,35.156,32.715,13.184,30.273,0
1528296157.617,-11.230,34.180,34.180,8.301,46.875,0
1528296157.621,41.016,38.574,32.227,20.508,32.227,0
1528296157.625,83.496,37.109,28.320,31.738,40.039,0
1528296157.629,26.367,33.203,34.180,15.137,61.523,0
1528296157.633,-16.602,31.738,32.715,-2.930,49.316,0
1528296157.630,20.020,28.809,25.879,10.742,85.938,0
1528296157.634,67.871,21.973,27.344,30.273,64.453,0
1528296157.638,33.203,24.414,33.691,17.090,23.438,0
1528296157.642,-21.484,27.344,35.645,0.488,26.855,0
1528296157.646,-5.371,22.949,31.738,11.719,15.625,0
1528296157.650,51.270,23.438,30.273,34.668,19.531,0
1528296157.654,34.668,21.973,32.227,30.762,72.266,0
1528296157.657,-20.996,22.461,34.668,17.578,56.152,0
1528296157.661,-28.320,24.414,36.621,17.578,0.488,0
1528296157.665,40.039,20.508,33.203,32.227,32.715,0
1528296157.669,63.477,20.996,35.156,41.992,100.098,0
1528296157.673,-6.836,26.855,41.504,22.461,17.090,0
1528296157.672,-30.273,27.832,37.109,11.230,-40.039,0
1528296157.676,41.992,26.855,26.367,30.762,28.809,0
1528296157.680,86.914,20.020,30.273,38.086,102.051,0
1528296157.684,30.762,17.578,37.598,22.949,77.637,0
1528296157.688,-24.414,29.785,39.062,8.301,1.465,0
1528296157.692,13.184,30.273,37.598,13.184,-34.180,0
1528296157.696,80.078,32.227,31.738,29.297,49.316,0
1528296157.699,52.246,40.039,34.180,18.066,96.680,0
1528296157.703,-3.906,41.504,34.668,0.977,11.230,0
1528296157.707,-1.465,34.668,25.391,2.930,8.301,0
1528296157.711,66.406,28.809,21.973,17.578,44.922,0
1528296157.715,71.289,30.762,29.785,10.742,21.484,0
1528296157.711,7.324,33.691,29.297,-10.742,28.320,0
1528296157.715,-9.277,29.785,22.461,-9.766,49.805,0
1528296157.719,44.434,30.273,19.043,13.184,51.270,0
1528296157.723,69.824,31.250,22.461,18.555,64.941,0
1528296157.727,9.277,31.738,25.391,-2.930,32.227,0
1528296157.731,-25.879,32.227,24.414,-12.695,21.973,0
1528296157.735,40.039,28.320,25.391,9.277,34.180,0
1528296157.738,75.684,27.344,25.879,21.973,71.777,0
1528296157.742,10.254,29.297,27.832,3.906,23.438,0
1528296157.746,-32.715,27.344,30.762,-1.953,-28.809,0
1528296157.750,7.812,15.137,29.785,11.719,38.086,0
1528296157.754,71.289,14.160,27.344,34.180,74.219,0
1528296157.769,40.527,28.320,25.391,31.738,46.875,0
1528296157.773,-17.578,33.203,25.391,15.137,-26.855,0
1528296157.777,-5.371,35.156,27.344,23.438,-26.367,0
1528296157.781,65.430,31.738,26.367,46.875,1.953,0
1528296157.785,72.266,29.785,29.297,44.922,-3.418,0
1528296157.789,2.930,30.762,33.203,23.438,21.484,0
1528296157.793,-15.137,29.297,29.297,14.160,34.668,0
1528296157.796,50.293,26.855,25.879,38.086,21.484,0
1528296157.800,75.195,25.879,26.367,46.387,28.809,0
1528296157.804,20.508,30.273,32.227,23.438,32.715,0
1528296157.808,-18.066,31.738,34.668,15.137,29.297,0
1528296157.812,29.297,28.320,23.438,29.297,42.480,0
1528296157.810,81.055,26.367,22.949,46.387,90.332,0
1528296157.814,32.227,26.855,30.762,32.715,43.457,0
1528296157.818,-20.020,29.785,34.180,14.160,-49.805,0
1528296157.822,6.836,21.973,33.691,25.391,4.883,0
1528296157.826,73.242,20.020,30.273,46.875,94.238,0
1528296157.830,50.293,32.715,33.203,41.016,83.984,0
1528296157.834,-14.648,35.156,36.621,20.508,52.246,0
1528296157.837,1.953,34.180,35.156,18.555,2.930,0
1528296157.841,76.660,26.855,30.273,45.898,-20.508,0
1528296157.845,69.336,20.508,29.297,51.270,41.016,0
1528296157.849,11.230,31.250,36.621,30.273,8.301,0
1528296157.853,-9.766,36.621,33.203,21.973,12.207,0
1528296157.851,36.621,36.621,25.391,40.039,75.684,0
1528296157.855,70.312,34.180,30.273,55.664,60.059,0
1528296157.859,10.742,31.738,34.180,36.621,-9.766,0
1528296157.863,-24.414,27.832,30.273,23.438,-2.441,0
1528296157.867,26.367,23.926,22.949,45.898,40.527,0
1528296157.871,73.730,26.367,23.926,66.406,15.625,0
1528296157.875,33.691,30.273,33.691,51.270,-7.812,0
1528296157.878,-17.090,29.785,39.551,32.227,-6.836,0
1528296157.882,9.766,20.508,38.086,36.133,-7.812,0
1528296157.886,79.590,20.996,29.297,53.223,58.105,0
1528296157.890,62.012,30.273,29.297,45.898,83.496,0
1528296157.894,3.906,35.645,38.574,31.250,50.293,0
1528296157.909,0.488,37.598,40.527,33.691,23.926,0
1528296157.913,59.570,32.715,29.297,49.805,74.219,0
1528296157.917,75.684,31.250,26.855,50.781,73.242,0
1528296157.921,12.207,25.879,31.738,30.273,-28.809,0
1528296157.925,-10.742,24.902,29.297,23.438,0.977,0
1528296157.929,45.898,36.133,26.855,35.645,28.809,0
1528296157.933,83.008,37.109,26.855,37.109,53.223,0
1528296157.936,36.621,36.621,32.715,22.461,25.879,0
1528296157.940,-3.906,43.945,37.598,17.090,-27.832,0
1528296157.944,37.109,40.039,36.133,34.180,36.133,0
1528296157.948,79.102,33.203,33.691,49.316,27.344,0
1528296157.952,47.363,37.109,25.391,35.645,1.465,0
1528296157.951,-7.324,33.691,20.020,17.578,49.805,0
1528296157.955,-9.766,30.762,25.879,24.414,19.531,0
1528296157.959,54.199,29.785,29.785,44.922,46.875,0
1528296157.963,52.246,30.273,27.832,35.645,42.480,0
1528296157.967,-19.531,25.391,24.902,12.695,-19.043,0
1528296157.971,-35.156,19.043,27.344,16.113,20.020,0
1528296157.975,32.715,20.508,23.926,37.109,52.734,0
1528296157.978,63.965,21.973,20.508,37.109,2.930,0
1528296157.982,10.254,22.949,26.855,19.531,-14.160,0
1528296157.986,-33.691,23.926,27.344,14.160,35.156,0
1528296157.990,18.066,20.508,22.461,29.785,106.934,0
1528296157.994,72.754,21.484,22.949,38.574,106.445,0
1528296157.989,22.949,22.949,31.250,24.414,68.359,0
1528296157.993,-23.926,21.484,31.738,16.113,52.246,0
1528296157.997,12.207,13.184,29.785,27.832,12.695,0
1528296158.001,68.848,9.766,35.156,42.969,18.555,0
1528296158.005,41.504,21.973,33.203,29.297,39.062,0
1528296158.009,-14.160,25.879,29.785,10.254,27.832,0
1528296158.013,-5.371,24.414,29.785,12.207,49.316,0
1528296158.016,53.223,28.320,24.414,25.391,67.383,0
1528296158.020,54.688,35.645,21.973,21.973,74.219,0
1528296158.024,-0.488,37.598,30.762,8.301,27.832,0
1528296158.028,-22.949,34.180,30.762,3.418,0.977,0
1528296158.032,35.156,27.344,22.949,24.414,50.781,0
1528296158.070,67.871,28.320,23.438,38.574,47.852,0
1528296158.074,13.184,32.227,26.367,20.020,46.387,0
1528296158.078,-27.832,29.785,28.320,6.836,-23.438,0
1528296158.082,23.438,31.250,27.832,29.297,-17.090,0
1528296158.086,78.613,30.273,29.297,49.316,90.332,0
1528296158.090,28.320,30.273,28.320,31.738,77.148,0
1528296158.094,-21.484,28.809,25.879,12.207,39.062,0
1528296158.097,9.277,23.926,26.855,22.461,26.367,0
1528296158.101,72.754,25.391,25.391,47.363,38.574,0
1528296158.105,52.734,29.785,26.855,41.992,80.566,0
1528296158.109,-21.484,33.691,37.109,23.438,64.941,0
1528296158.113,-27.344,28.809,39.551,24.902,53.711,0
1528296158.091,48.828,25.391,32.227,44.922,59.082,0
1528296158.095,61.523,19.531,31.738,50.293,48.340,0
1528296158.099,0.977,13.672,35.156,32.227,90.332,0
1528296158.103,-28.809,20.020,36.621,25.879,107.422,0
1528296158.107,23.926,20.020,32.715,41.016,98.633,0
1528296158.111,70.312,23.438,29.297,44.434,85.449,0
1528296158.115,20.996,32.715,29.297,25.391,38.574,0
1528296158.118,-27.344,36.621,36.621,10.254,-3.906,0
1528296158.122,15.625,32.715,38.086,23.926,5.859,0
1528296158.126,75.195,30.762,24.414,39.551,23.438,0
1528296158.130,38.574,29.297,24.902,24.902,-0.977,0
1528296158.134,-19.043,30.762,33.203,8.301,-24.902,0
1528296158.151,6.348,33.203,30.273,18.555,33.691,0
1528296158.155,71.289,31.738,27.344,38.574,52.246,0
1528296158.159,57.129,30.762,28.320,25.879,4.395,0
1528296158.163,-0.488,29.785,31.738,3.906,-8.301,0
1528296158.167,-15.137,31.250,35.156,7.324,-16.113,0
1528296158.171,49.805,29.785,31.250,33.203,43.945,0
1528296158.175,71.289,26.855,31.738,41.504,52.246,0
1528296158.178,1.465,29.785,33.691,19.043,24.414,0
1528296158.182,-24.414,29.785,31.738,13.672,48.828,0
1528296158.186,35.645,18.066,31.738,42.969,20.996,0
1528296158.190,81.543,17.578,34.180,54.688,87.402,0
1528296158.194,25.391,26.367,32.715,33.203,59.082,0
1528296158.190,-35.156,26.367,33.691,17.578,-52.734,0
1528296158.194,4.395,30.762,39.551,29.297,-6.348,0
1528296158.198,74.219,32.715,39.551,50.293,-4.395,0
1528296158.202,37.109,30.273,38.574,37.109,-13.184,0
1528296158.206,-31.250,31.738,38.086,13.184,-16.113,0
1528296158.210,-16.113,26.367,33.691,20.996,-33.203,0
1528296158.214,63.965,22.461,32.227,46.875,21.973,0
1528296158.217,69.336,29.297,36.621,45.898,55.176,0
1528296158.221,3.906,35.156,41.016,26.367,16.602,0
1528296158.225,-4.883,34.668,41.016,24.414,6.836,0
1528296158.229,53.223,30.273,36.621,40.527,51.758,0
1528296158.233,77.148,28.320,33.203,41.992,46.387,0
1528296158.231,21.973,28.809,32.715,25.391,19.531,0
1528296158.235,-20.996,26.855,31.250,11.719,23.438,0
1528296158.239,32.715,25.879,28.320,29.785,51.758,0
1528296158.243,83.008,22.461,28.809,46.387,22.461,0
1528296158.247,40.527,18.066,27.832,26.367,-18.066,0
1528296158.251,-6.348,27.344,28.320,15.137,2.930,0
1528296158.255,11.719,37.109,30.762,29.785,37.109,0
1528296158.258,72.266,37.109,30.762,46.875,27.832,0
1528296158.262,48.340,37.109,29.297,33.203,38.086,0
1528296158.266,-19.043,36.621,25.879,12.207,18.066,0
1528296158.270,-8.789,33.203,28.809,13.672,-5.371,0
1528296158.274,61.035,29.785,27.344,34.668,14.648,0
1528296158.291,63.477,31.250,25.879,37.109,15.625,0
1528296158.295,-13.184,33.691,31.250,12.695,56.641,0
1528296158.299,-37.109,31.250,29.297,3.906,32.227,0
1528296158.303,38.086,30.762,20.508,30.273,34.180,0
1528296158.307,72.754,27.832,15.137,37.598,60.059,0
1528296158.311,11.230,22.949,22.461,10.742,3.906,0
1528296158.315,-35.645,29.297,34.180,-1.953,34.180,0
1528296158.318,7.812,33.691,34.180,8.789,54.199,0
1528296158.322,76.660,34.180,35.156,27.344,22.949,0
1528296158.326,32.715,33.203,35.156,15.625,13.184,0
1528296158.330,-24.902,20.020,30.273,-7.324,11.230,0
1528296158.334,3.418,22.949,25.879,-0.977,17.090,0
1528296158.332,71.289,31.250,22.461,22.461,0.000,0
1528296158.336,63.477,31.738,25.391,13.672,-19.043,0
1528296158.340,-3.906,40.039,28.809,-9.277,-21.484,0
1528296158.344,-11.719,38.086,25.879,-4.395,-10.742,0
1528296158.348,60.059,32.715,24.902,17.578,23.926,0
1528296158.352,78.125,33.691,22.949,16.113,46.875,0
1528296158.356,8.301,36.621,25.879,-2.930,35.645,0
1528296158.359,-20.508,33.203,24.902,-8.301,3.906,0
1528296158.363,56.641,32.715,22.461,17.090,-2.441,0
1528296158.367,101.562,37.109,25.391,32.227,37.109,0
1528296158.371,14.160,37.109,30.273,4.883,43.457,0
1528296158.375,-33.691,36.621,30.273,-11.719,14.160,0
1528296158.370,24.902,32.227,27.832,7.812,53.223,0
1528296158.374,88.379,27.344,24.902,28.320,48.828,0
1528296158.378,48.828,21.973,24.902,12.695,59.570,0
1528296158.382,-20.508,20.996,28.809,-11.719,31.738,0
1528296158.386,0.977,29.785,29.297,-5.371,15.137,0
1528296158.390,64.453,30.762,27.344,20.996,63.965,0
1528296158.394,50.293,32.227,28.809,20.020,31.738,0
1528296158.397,-11.230,26.367,30.273,-4.395,22.949,0
1528296158.401,-25.879,20.996,29.785,-9.766,34.668,0
1528296158.405,46.875,31.250,26.367,14.160,-21.484,0
1528296158.409,82.031,22.949,32.227,20.020,-23.438,0
1528296158.413,5.859,20.020,39.062,0.000,31.738,0
1528296158.430,-43.457,28.320,34.180,-6.836,14.648,0
1528296158.434,18.066,26.855,32.715,13.672,25.879,0
1528296158.438,77.637,26.855,33.691,28.809,110.352,0
1528296158.442,27.344,30.273,33.203,13.672,36.133,0
1528296158.446,-27.344,28.809,31.250,1.953,-16.602,0
1528296158.450,9.766,25.391,28.320,16.602,30.762,0
1528296158.454,66.895,25.879,27.832,34.180,57.129,0
1528296158.457,32.715,22.461,29.297,21.973,49.805,0
1528296158.461,-19.043,21.973,28.809,5.859,5.371,0
1528296158.465,2.930,24.414,32.715,15.137,-13.672,0
1528296158.469,77.637,25.391,28.809,35.156,7.812,0
1528296158.473,73.242,33.203,25.391,34.668,24.414,0
1528296158.470,8.301,31.250,32.227,19.043,55.176,0
1528296158.474,-7.324,24.902,38.574,14.648,39.551,0
1528296158.478,51.758,23.926,31.250,35.645,-4.883,0
1528296158.482,74.707,30.273,18.066,43.457,32.227,0
1528296158.486,2.441,35.156,27.344,21.973,56.641,0
1528296158.490,-41.992,30.762,28.320,8.301,3.906,0
1528296158.494,18.066,31.738,27.344,27.344,26.367,0
1528296158.497,78.613,29.785,32.715,42.969,59.570,0
1528296158.501,41.504,35.156,37.109,22.949,42.969,0
1528296158.505,-21.484,41.992,37.109,9.277,60.547,0
1528296158.509,-6.836,32.227,32.227,15.625,3.906,0
1528296158.513,72.754,22.949,27.344,31.738,-1.465,0
1528296158.509,51.758,29.297,33.691,29.297,34.180,0
1528296158.513,-19.531,34.668,38.086,8.789,36.621,0
1528296158.517,-5.371,37.598,35.156,14.648,69.336,0
1528296158.521,62.988,39.062,32.227,40.527,53.711,0
1528296158.525,60.059,37.109,31.250,36.133,14.648,0
1528296158.529,-11.230,35.156,34.180,14.648,-5.859,0
1528296158.533,-32.715,31.250,37.598,10.254,1.953,0
1528296158.536,30.273,28.320,37.109,29.297,3.906,0
1528296158.540,60.547,33.691,35.156,34.668,62.012,0
1528296158.544,0.488,33.203,32.227,9.277,50.781,0
1528296158.548,-36.133,30.762,27.344,0.000,-45.898,0
1528296158.552,17.578,32.227,24.414,18.555,-11.230,0
1528296158.569,76.172,31.738,22.949,34.180,72.754,0
1528296158.573,36.621,34.180,31.250,24.414,22.461,0
1528296158.577,-20.508,34.668,32.715,5.859,-41.992,0
1528296158.581,3.906,23.438,25.391,8.301,-18.066,0
1528296158.585,82.031,24.902,25.879,31.738,22.461,0
1528296158.589,64.453,37.109,32.715,26.367,-0.488,0
1528296158.593,-8.789,43.945,35.645,0.488,-26.855,0
1528296158.596,-9.277,45.898,28.809,-1.953,20.996,0
1528296158.600,67.871,42.480,26.367,23.926,21.973,0
1528296158.604,77.148,37.598,29.297,26.367,-4.395,0
1528296158.608,-2.930,37.109,32.715,5.859,-12.695,0
1528296158.612,-38.086,38.086,36.621,-0.488,-18.555,0
1528296158.611,39.062,36.621,25.879,19.531,14.648,0
1528296158.615,95.215,35.645,19.531,35.156,65.430,0
1528296158.619,27.344,30.762,33.691,11.719,94.238,0
1528296158.623,-30.273,29.785,36.133,-1.465,70.801,0
1528296158.627,8.789,34.180,33.203,19.531,46.387,0
1528296158.631,70.801,36.621,36.621,31.738,73.730,0
1528296158.635,34.668,31.250,29.785,10.742,47.852,0
1528296158.638,-26.855,21.973,25.391,-8.789,-2.441,0
1528296158.642,-16.602,21.484,31.250,-1.465,20.020,0
1528296158.646,45.898,29.297,34.668,26.367,45.898,0
1528296158.650,46.387,35.645,35.645,22.461,62.988,0
1528296158.654,-16.113,32.227,31.250,-2.441,-13.672,0
1528296158.651,-28.320,29.785,29.297,0.977,-43.945,0
1528296158.655,59.082,29.297,28.320,29.297,60.547,0
1528296158.659,77.637,31.738,30.273,37.109,109.863,0
1528296158.663,-4.883,29.785,33.203,16.113,56.152,0
1528296158.667,-29.297,22.949,32.715,9.277,26.367,0
1528296158.671,36.133,24.414,28.320,29.785,13.184,0
1528296158.675,90.820,30.273,23.926,43.945,23.438,0
1528296158.678,33.203,35.156,32.227,23.926,73.242,0
1528296158.682,-30.273,35.645,32.715,-3.418,44.922,0
1528296158.686,16.602,34.668,26.855,7.324,-14.160,0
1528296158.690,89.844,32.227,27.344,35.156,15.137,0
1528296158.694,62.012,37.109,27.344,30.273,72.266,0
1528296158.711,-2.441,34.180,30.762,11.719,73.242,0
1528296158.715,2.441,28.320,33.203,12.207,26.367,0
1528296158.719,75.684,36.133,30.762,42.969,57.617,0
1528296158.723,75.195,41.016,31.250,46.875,140.625,0
1528296158.727,-6.348,40.039,33.203,14.160,88.867,0
1528296158.731,-32.227,34.180,29.785,6.348,-28.320,0
1528296158.735,32.715,27.344,29.785,30.273,15.625,0
1528296158.738,70.312,32.715,34.180,41.016,67.871,0
1528296158.742,14.648,36.133,34.668,20.996,65.918,0
1528296158.746,-24.902,37.109,34.180,9.766,43.945,0
1528296158.750,19.531,36.621,34.180,21.973,-13.184,0
1528296158.754,58.594,35.645,32.715,33.203,-32.227,0
1528296158.750,19.043,35.645,35.156,21.973,-55.664,0
1528296158.754,-31.250,37.598,31.250,4.883,-22.949,0
1528296158.758,-3.906,28.320,28.809,16.113,-14.160,0
1528296158.762,66.895,20.996,31.738,41.504,-4.395,0
1528296158.766,47.852,34.180,38.086,36.621,-9.766,0
1528296158.770,-10.254,36.133,39.551,16.602,-33.691,0
1528296158.774,-9.277,28.320,32.227,11.230,-16.602,0
1528296158.777,48.828,24.414,26.367,32.227,62.988,0
1528296158.781,61.035,25.391,26.367,38.574,87.402,0
1528296158.785,-1.953,35.645,32.227,20.508,5.371,0
1528296158.789,-26.855,41.016,32.227,6.348,13.184,0
1528296158.793,37.109,39.062,26.367,21.484,11.230,0
1528296158.790,73.242,36.621,28.320,44.434,-39.551,0
1528296158.794,24.414,37.109,35.156,31.738,3.906,0
1528296158.798,-17.578,38.086,36.133,20.020,57.129,0
1528296158.802,25.879,33.691,32.227,33.691,50.293,0
1528296158.806,86.914,32.227,28.320,47.852,91.309,0
1528296158.810,48.340,38.086,24.414,36.621,67.871,0
1528296158.814,-7.812,41.504,29.297,24.414,5.859,0
1528296158.817,10.742,23.926,29.297,31.250,-8.301,0
1528296158.821,70.312,11.719,27.832,48.340,22.949,0
1528296158.825,60.059,24.414,33.691,43.457,117.676,0
1528296158.829,-11.719,28.320,38.086,20.020,74.707,0
1528296158.833,-22.949,24.414,40.039,15.625,-10.742,0
1528296158.852,54.688,31.738,37.598,40.039,36.621,0
1528296158.856,77.148,38.086,34.668,40.039,81.543,0
1528296158.860,9.277,39.062,35.645,10.742,57.129,0
1528296158.864,-23.438,36.621,38.574,-0.977,-6.836,0
1528296158.868,41.504,40.039,38.574,19.531,-64.941,0
1528296158.872,81.543,33.691,38.086,40.039,-4.883,0
1528296158.876,20.020,28.320,44.434,17.578,82.520,0
1528296158.879,-16.602,33.691,41.504,-8.301,38.086,0
1528296158.883,22.461,29.297,30.273,11.719,-0.488,0
1528296158.887,76.660,31.738,28.320,31.738,61.035,0
1528296158.891,47.852,26.855,31.738,5.371,68.848,0
1528296158.895,-12.695,21.973,34.668,-17.090,23.926,0
1528296158.891,7.812,27.832,36.621,-8.789,96.191,0
1528296158.895,79.102,29.785,29.785,14.648,90.332,0
1528296158.899,69.336,38.086,26.855,10.742,70.801,0
1528296158.903,-5.859,41.992,34.668,-15.625,65.918,0
1528296158.907,-26.855,42.969,37.109,-19.531,-31.250,0
1528296158.911,35.156,41.992,28.809,3.418,-11.230,0
