timestamps,TP9,AF7,AF8,TP10,Right AUX,Marker0
1528296335.643,42.480,45.410,38.086,26.367,16.602,1
1528296335.647,25.391,43.945,34.668,24.414,42.480,0
1528296335.651,-0.977,41.992,34.668,29.785,28.809,0
1528296335.655,19.531,42.480,35.645,33.203,68.848,0
1528296335.659,40.039,43.945,33.691,36.621,81.055,0
1528296335.663,28.320,42.480,34.668,28.809,70.801,0
1528296335.667,10.254,38.574,36.133,25.391,30.273,0
1528296335.670,14.160,35.645,36.621,23.926,12.695,0
1528296335.674,39.062,34.180,37.598,28.809,22.949,0
1528296335.678,33.691,38.086,39.062,34.180,1.465,0
1528296335.682,-1.465,39.062,37.109,22.461,9.277,0
1528296335.686,9.277,39.062,37.109,23.926,-0.977,0
1528296335.685,47.363,40.039,40.527,39.551,2.441,0
1528296335.689,50.781,39.062,42.480,38.086,14.648,0
1528296335.693,26.855,38.574,42.480,32.715,67.871,0
1528296335.697,20.996,39.062,40.527,33.203,90.332,0
1528296335.701,40.039,37.109,38.574,35.645,78.613,0
1528296335.705,45.898,36.621,39.551,40.039,73.730,0
1528296335.709,32.715,36.621,37.598,32.715,27.832,0
1528296335.712,17.578,37.109,35.156,27.344,21.973,0
1528296335.716,30.762,38.086,32.715,29.785,78.125,0
1528296335.720,62.988,39.551,28.320,34.180,73.730,0
1528296335.724,45.898,40.527,29.297,38.086,35.645,0
1528296335.728,21.973,39.551,33.203,33.691,46.875,0
1528296335.744,28.320,41.504,35.645,33.691,36.621,0
1528296335.748,38.574,43.457,33.691,35.645,-1.465,0
1528296335.752,47.363,39.551,33.203,29.785,-0.488,0
1528296335.756,32.227,38.086,33.691,25.879,-2.930,0
1528296335.760,18.555,40.039,33.203,25.391,-3.906,0
1528296335.764,27.344,39.062,35.156,30.762,-11.719,0
1528296335.768,31.738,36.621,34.668,32.227,10.742,0
1528296335.771,12.695,39.551,31.738,22.461,20.508,0
1528296335.775,10.254,40.527,31.250,22.461,-5.859,0
1528296335.779,33.691,40.039,30.762,28.320,31.738,0
1528296335.783,56.641,41.504,29.785,29.785,43.945,0
1528296335.787,45.410,41.016,29.297,27.832,37.598,0
1528296335.784,36.133,40.039,26.367,22.949,1.465,0
1528296335.788,51.758,42.480,27.344,28.320,0.488,0
1528296335.792,69.824,43.945,28.320,33.691,58.105,0
1528296335.796,62.500,39.551,27.344,21.973,90.820,0
1528296335.800,32.715,39.551,33.203,19.043,50.781,0
1528296335.804,13.672,41.504,29.785,29.297,20.508,0
1528296335.808,7.812,39.551,28.809,43.457,62.012,0
1528296335.811,2.930,41.016,38.086,44.434,11.719,0
1528296335.815,-23.438,42.480,38.086,39.062,-41.016,0
1528296335.819,-39.551,42.480,35.645,37.598,30.762,0
1528296335.823,-8.789,45.410,33.691,37.598,23.926,0
1528296335.827,22.949,45.410,31.738,42.480,-14.160,0
1528296335.825,10.254,43.457,29.785,32.715,17.090,0
1528296335.829,6.836,44.922,29.297,25.879,-2.441,0
1528296335.833,19.531,44.922,32.715,37.109,-27.832,0
1528296335.837,33.691,44.434,33.203,41.016,11.230,0
1528296335.841,26.855,44.922,34.180,31.738,55.176,0
1528296335.845,0.977,41.016,35.645,24.414,19.531,0
1528296335.849,10.742,39.062,30.273,27.344,46.387,0
1528296335.852,32.227,41.504,24.414,31.250,30.762,0
1528296335.856,18.555,41.992,25.879,21.484,-8.301,0
1528296335.860,-0.488,39.062,25.879,13.672,23.926,0
1528296335.864,7.812,36.621,23.438,19.531,25.391,0
1528296335.868,33.691,37.109,22.949,28.320,58.105,0
1528296335.881,37.109,37.109,23.926,31.738,89.844,0
1528296335.885,9.766,38.574,23.438,26.367,59.082,0
1528296335.889,9.766,39.551,25.879,27.832,65.430,0
1528296335.893,35.645,38.574,28.320,39.062,106.934,0
1528296335.897,45.898,36.621,27.832,40.527,58.105,0
1528296335.901,29.785,37.109,29.297,36.133,-14.160,0
1528296335.905,13.184,40.527,34.668,30.762,-16.113,0
1528296335.908,35.156,40.527,34.180,28.320,34.668,0
1528296335.912,61.035,43.457,30.762,41.016,51.758,0
1528296335.916,53.223,44.922,29.297,41.504,-8.301,0
1528296335.920,22.949,46.875,26.367,25.391,37.598,0
1528296335.924,22.949,45.898,28.320,25.879,31.738,0
1528296335.924,53.223,41.992,29.297,32.715,8.301,0
1528296335.928,56.152,44.922,27.344,31.250,47.363,0
1528296335.932,41.016,47.363,28.320,26.855,8.789,0
1528296335.936,30.273,46.875,27.344,27.344,30.762,0
1528296335.940,41.016,44.434,26.367,35.645,40.527,0
1528296335.944,41.504,41.016,30.273,37.109,20.508,0
1528296335.948,13.184,43.457,31.250,27.344,-19.043,0
1528296335.951,5.859,43.945,31.738,30.273,-23.926,0
1528296335.955,30.273,41.504,30.762,43.945,-3.906,0
1528296335.959,26.855,40.039,26.855,31.738,46.387,0
1528296335.963,6.836,37.598,29.785,16.602,47.363,0
1528296335.967,6.836,36.133,26.367,19.531,13.184,0
1528296335.963,17.090,35.645,24.902,31.738,67.871,0
1528296335.967,39.551,33.203,31.250,42.969,104.492,0
1528296335.971,29.297,33.691,34.180,28.320,78.613,0
1528296335.975,-0.488,33.691,32.227,17.090,50.781,0
1528296335.979,7.324,33.203,31.738,24.414,46.875,0
1528296335.983,45.898,36.133,36.133,36.621,44.434,0
1528296335.987,52.734,37.109,37.598,41.504,78.613,0
1528296335.990,31.250,38.574,37.598,36.133,63.477,0
1528296335.994,31.250,41.504,39.062,31.250,53.711,0
1528296335.998,41.016,39.551,38.086,34.180,79.102,0
1528296336.002,43.945,38.574,35.645,41.504,41.504,0
1528296336.006,26.367,40.527,39.551,32.227,20.020,0
1528296336.023,0.977,35.645,41.016,25.391,10.254,0
1528296336.027,6.348,33.203,37.109,35.645,-1.465,0
1528296336.031,32.227,34.180,35.156,38.086,21.484,0
1528296336.035,25.391,36.133,34.668,37.109,33.691,0
1528296336.039,6.348,37.109,33.691,37.598,50.293,0
1528296336.043,12.207,39.551,34.180,36.621,72.754,0
1528296336.047,32.715,41.504,36.133,32.715,58.594,0
1528296336.050,37.109,40.527,33.691,28.809,38.086,0
1528296336.054,18.555,41.016,33.203,29.297,37.598,0
1528296336.058,14.648,43.457,39.062,31.250,35.645,0
1528296336.062,36.621,43.945,31.250,34.668,42.969,0
1528296336.066,43.945,41.016,27.832,37.598,14.648,0
1528296336.063,22.461,39.062,34.668,33.691,-14.648,0
1528296336.067,11.230,39.551,33.203,33.203,26.367,0
1528296336.071,31.738,39.062,33.203,39.062,29.297,0
1528296336.075,47.852,35.645,35.156,45.410,0.977,0
1528296336.079,31.738,35.645,36.133,40.039,-12.695,0
1528296336.083,13.184,37.598,35.156,29.297,-5.859,0
1528296336.087,29.785,37.598,32.227,37.598,37.598,0
1528296336.090,55.176,38.574,32.227,43.457,90.820,0
1528296336.094,43.457,39.551,31.738,34.668,50.781,0
1528296336.098,22.949,40.527,27.832,26.855,38.574,0
1528296336.102,30.273,41.504,24.902,28.320,47.363,0
1528296336.106,55.664,41.016,25.879,38.086,5.859,0
1528296336.103,55.176,39.551,29.297,37.109,51.758,0
1528296336.107,33.203,38.086,31.250,33.203,69.824,0
1528296336.111,31.738,40.527,31.738,33.203,37.109,0
1528296336.115,52.246,42.480,29.785,31.250,39.062,0
1528296336.119,58.594,41.016,25.879,35.645,56.152,0
1528296336.123,25.391,40.039,27.344,26.367,84.961,0
1528296336.127,14.160,37.109,27.344,18.066,74.219,0
1528296336.130,29.785,34.668,21.973,24.902,19.043,0
1528296336.134,40.527,35.645,25.391,25.391,-32.227,0
1528296336.138,30.273,36.621,26.367,22.949,-6.348,0
1528296336.142,8.789,39.062,25.879,20.508,37.109,0
1528296336.146,26.855,36.621,31.250,26.367,23.926,0
1528296336.164,48.828,35.156,35.156,34.668,20.996,0
1528296336.168,36.621,35.645,32.227,27.832,-19.043,0
1528296336.172,14.160,36.133,26.367,18.555,-38.574,0
1528296336.176,17.090,35.645,26.855,26.367,-20.020,0
1528296336.180,41.016,36.621,31.250,37.109,-2.930,0
1528296336.184,39.551,38.574,29.785,33.691,36.621,0
1528296336.188,11.719,37.598,30.273,25.879,30.273,0
1528296336.191,8.301,38.574,28.320,26.367,8.789,0
1528296336.195,32.227,39.062,28.809,37.598,82.520,0
1528296336.199,43.457,36.621,30.273,39.062,58.594,0
1528296336.203,21.973,38.086,29.785,34.180,60.547,0
1528296336.207,11.230,41.016,35.645,39.551,99.121,0
1528296336.203,38.086,39.551,38.086,46.875,16.113,0
1528296336.207,53.711,39.062,35.645,46.875,11.719,0
1528296336.211,26.855,40.039,34.180,41.016,60.059,0
1528296336.215,12.207,38.574,34.668,38.086,32.227,0
1528296336.219,26.855,39.551,31.738,34.668,31.738,0
1528296336.223,45.410,37.598,27.344,36.133,14.160,0
1528296336.227,32.227,36.621,28.809,30.273,52.246,0
1528296336.230,10.742,39.062,28.320,23.926,50.781,0
1528296336.234,17.090,37.598,26.855,27.832,-2.441,0
1528296336.238,23.438,37.598,33.203,33.203,13.672,0
1528296336.242,23.926,37.598,31.250,27.832,9.277,0
1528296336.246,10.742,38.086,23.438,21.484,-11.230,0
1528296336.243,0.977,36.621,30.273,20.020,-22.461,0
1528296336.247,19.043,36.621,36.133,25.879,9.766,0
1528296336.251,34.180,39.062,35.156,34.668,35.156,0
1528296336.255,15.625,40.039,36.621,28.809,-27.832,0
1528296336.259,-2.930,40.039,39.062,20.020,-40.039,0
1528296336.263,13.672,38.086,37.598,28.809,21.973,0
1528296336.267,45.410,39.551,35.156,37.598,57.129,0
1528296336.270,27.344,41.504,39.551,27.832,52.246,0
1528296336.274,6.348,39.062,37.109,17.578,-2.930,0
1528296336.278,24.902,37.598,32.715,25.879,5.859,0
1528296336.282,41.504,38.086,34.668,38.086,23.926,0
1528296336.286,37.598,39.062,32.715,37.109,0.977,0
1528296336.303,13.672,37.598,33.691,30.762,17.578,0
1528296336.307,18.066,35.645,36.621,31.250,37.109,0
1528296336.311,46.387,36.621,37.109,38.086,46.387,0
1528296336.315,52.734,37.598,37.109,38.086,58.594,0
1528296336.319,30.762,41.016,35.645,37.598,70.312,0
1528296336.323,3.906,42.480,35.156,41.016,41.016,0
1528296336.327,5.859,40.527,32.715,47.852,27.832,0
1528296336.330,25.879,39.551,31.738,44.922,20.996,0
1528296336.334,10.254,37.109,33.203,34.180,67.871,0
1528296336.338,-2.441,38.574,33.691,34.668,51.758,0
1528296336.342,21.484,41.992,32.227,40.039,-34.668,0
1528296336.346,46.387,46.387,32.227,43.945,13.672,0
1528296336.343,37.109,45.898,35.645,36.133,77.148,0
1528296336.347,11.230,43.945,27.832,23.926,44.922,0
1528296336.351,14.648,42.969,21.484,25.391,-5.371,0
1528296336.355,41.992,43.945,28.809,30.273,23.926,0
1528296336.359,37.598,46.387,33.203,23.438,6.348,0
1528296336.363,14.160,44.434,32.227,19.043,36.133,0
1528296336.367,10.742,44.434,33.691,21.484,64.941,0
1528296336.370,30.273,44.434,34.180,29.785,9.277,0
1528296336.374,39.062,43.457,32.715,34.180,37.109,0
1528296336.378,4.883,44.434,33.691,27.832,56.152,0
1528296336.382,-8.789,44.922,32.227,29.297,30.762,0
1528296336.386,20.508,43.457,25.391,39.062,20.020,0
1528296336.383,39.062,41.992,24.902,37.109,70.312,0
1528296336.387,16.602,41.016,26.855,22.949,81.543,0
1528296336.391,-3.418,41.016,28.320,15.625,2.441,0
1528296336.395,14.648,41.016,31.250,18.066,37.109,0
1528296336.399,38.574,39.062,33.691,21.973,49.316,0
1528296336.403,24.902,38.574,35.156,17.578,34.180,0
1528296336.407,0.000,36.133,33.691,12.695,78.613,0
1528296336.410,5.371,38.086,36.133,18.066,35.156,0
1528296336.414,34.180,41.016,32.715,22.949,-11.230,0
1528296336.418,47.852,40.039,30.762,24.902,12.207,0
1528296336.422,25.879,40.039,38.086,26.367,19.531,0
1528296336.426,17.578,35.645,38.086,30.273,50.293,0
1528296336.443,35.156,32.715,38.086,34.180,54.199,0
1528296336.447,48.828,34.180,41.016,29.785,34.668,0
1528296336.451,27.344,36.133,42.969,20.996,46.875,0
1528296336.455,14.648,35.156,33.691,24.414,44.922,0
1528296336.459,38.086,34.668,30.273,32.227,4.883,0
1528296336.463,44.434,36.621,36.133,30.273,5.371,0
1528296336.467,25.391,39.062,35.156,19.531,24.902,0
1528296336.470,18.555,37.598,28.809,17.090,7.324,0
1528296336.474,28.809,35.156,30.273,24.902,34.668,0
1528296336.478,44.922,37.109,35.156,33.691,97.656,0
1528296336.482,30.762,38.086,34.180,32.227,64.941,0
1528296336.486,5.859,39.062,37.109,26.367,-39.062,0
1528296336.483,12.207,37.109,39.551,28.809,13.672,0
1528296336.487,42.480,33.691,39.551,39.062,91.797,0
1528296336.491,49.316,36.133,40.039,37.109,44.434,0
1528296336.495,15.625,39.062,37.109,31.738,46.387,0
1528296336.499,3.418,38.574,36.621,35.645,57.129,0
1528296336.503,17.578,36.621,36.621,37.109,62.012,0
1528296336.507,29.297,36.621,38.086,38.086,43.457,0
1528296336.510,16.113,35.645,44.922,34.668,3.418,0
1528296336.514,-3.906,34.668,43.945,28.809,3.906,0
1528296336.518,4.883,36.133,40.039,33.691,12.695,0
1528296336.522,26.855,34.180,41.016,32.227,-18.066,0
1528296336.526,22.949,34.180,37.598,27.832,1.953,0
1528296336.522,10.254,35.645,34.668,29.297,-0.488,0
1528296336.526,18.066,35.645,36.621,34.180,-27.344,0
1528296336.530,34.668,32.227,33.691,37.109,0.488,0
1528296336.534,34.668,33.203,32.227,33.203,19.043,0
1528296336.538,12.207,36.621,41.504,29.297,25.391,0
1528296336.542,0.488,38.574,43.945,26.855,1.465,0
1528296336.546,29.297,39.062,39.062,32.227,-13.672,0
1528296336.549,31.250,38.574,40.527,27.832,60.547,0
1528296336.553,7.324,41.504,41.992,17.578,89.355,0
1528296336.557,11.230,43.945,38.086,23.926,9.277,0
1528296336.561,42.480,44.922,35.645,29.297,-42.969,0
1528296336.565,64.453,45.898,35.645,29.297,54.199,0
1528296336.584,47.852,45.410,35.156,26.367,66.895,0
1528296336.588,27.344,43.457,36.133,22.949,27.832,0
1528296336.592,31.250,42.969,37.598,29.297,29.785,0
1528296336.596,38.086,42.480,38.574,37.598,-12.207,0
1528296336.600,14.648,40.527,41.016,39.062,19.043,0
1528296336.604,-9.277,40.039,42.480,31.738,68.848,0
1528296336.608,0.488,41.504,42.480,30.273,47.852,0
1528296336.611,28.809,40.527,41.992,38.574,60.547,0
1528296336.615,32.715,38.574,45.898,38.574,38.574,0
1528296336.619,13.184,37.109,43.945,39.551,19.531,0
1528296336.623,10.742,36.621,40.039,35.156,44.434,0
1528296336.627,34.668,39.062,47.852,33.203,45.898,0
1528296336.624,44.922,41.016,53.711,37.598,22.949,0
1528296336.628,22.461,41.504,53.223,32.227,1.465,0
1528296336.632,15.137,40.527,50.781,31.738,-14.648,0
1528296336.636,29.785,41.016,47.363,37.598,43.457,0
1528296336.640,36.133,39.551,42.480,39.062,39.062,0
1528296336.644,27.344,38.574,39.551,35.156,35.156,0
1528296336.648,20.508,39.551,39.551,36.133,57.129,0
1528296336.651,35.156,37.598,37.109,40.039,54.688,0
1528296336.655,48.340,40.039,37.598,42.480,66.406,0
1528296336.659,37.109,43.457,40.039,36.621,58.594,0
1528296336.663,22.949,46.387,37.598,24.414,72.266,0
1528296336.667,27.832,48.828,36.621,29.297,18.066,0
1528296336.662,54.688,48.828,36.133,37.109,28.320,0
1528296336.666,52.734,50.293,35.645,30.762,107.910,0
1528296336.670,23.438,51.758,37.598,25.391,37.109,0
1528296336.674,23.926,49.316,37.598,21.484,23.926,0
1528296336.678,44.922,45.898,36.133,24.902,72.754,0
1528296336.682,52.734,44.434,37.598,31.250,22.949,0
1528296336.686,27.832,43.945,40.527,21.973,-21.973,0
1528296336.689,3.418,47.363,40.039,19.043,-32.227,0
1528296336.693,20.508,47.363,35.156,27.344,45.898,0
1528296336.697,41.504,47.363,34.180,32.715,38.574,0
1528296336.701,24.414,45.410,34.180,29.297,-48.828,0
1528296336.705,1.465,45.410,33.691,30.273,-1.465,0
1528296336.723,10.742,44.922,30.273,37.598,70.312,0
1528296336.727,41.016,43.945,29.297,35.156,67.871,0
1528296336.731,27.344,43.457,40.527,29.785,71.289,0
1528296336.735,-6.348,37.598,41.992,24.902,31.738,0
1528296336.739,-4.395,35.156,39.551,29.785,76.172,0
1528296336.743,25.391,36.621,39.551,37.598,90.820,0
1528296336.747,30.273,36.133,36.621,43.945,-21.484,0
1528296336.750,5.371,37.109,37.598,41.504,46.387,0
1528296336.754,4.883,40.039,38.574,31.738,62.012,0
1528296336.758,28.320,41.504,38.086,35.645,6.836,0
1528296336.762,35.645,42.480,39.551,37.598,41.016,0
1528296336.766,20.020,42.969,40.039,26.367,60.547,0
1528296336.763,11.719,41.016,38.086,26.367,56.152,0
1528296336.767,23.438,38.086,38.574,31.738,12.695,0
1528296336.771,43.457,40.039,38.574,34.668,-6.836,0
1528296336.775,37.109,42.480,37.598,30.762,-23.438,0
1528296336.779,14.648,42.480,35.156,26.367,-38.086,0
1528296336.783,16.602,41.992,35.156,32.227,40.527,0
1528296336.787,41.992,42.969,36.621,38.574,46.875,0
1528296336.790,45.898,44.922,39.062,30.762,3.906,0
1528296336.794,16.602,45.410,38.086,17.578,13.184,0
1528296336.798,9.766,43.457,29.785,20.996,-6.836,0
1528296336.802,31.250,42.969,23.438,34.180,61.523,0
1528296336.806,31.738,41.016,30.762,29.785,80.566,0
1528296336.802,5.859,39.551,36.133,23.438,39.551,0
1528296336.806,-15.625,40.527,34.180,26.855,6.836,0
1528296336.810,9.277,41.992,32.227,27.832,17.090,0
1528296336.814,39.062,42.480,31.738,28.320,55.664,0
1528296336.818,23.438,40.039,31.738,26.855,14.648,0
1528296336.822,2.441,41.504,33.203,31.250,14.648,0
1528296336.826,15.137,42.480,34.180,37.598,63.965,0
1528296336.829,31.738,43.945,33.203,34.180,62.988,0
1528296336.833,23.926,45.898,30.762,27.344,9.277,0
1528296336.837,10.254,43.945,33.203,36.133,-13.184,0
1528296336.841,28.320,40.527,32.715,40.039,48.828,0
1528296336.845,46.875,40.527,32.227,39.062,61.523,0
1528296336.864,26.367,40.039,33.691,38.574,39.551,0
1528296336.868,14.160,37.598,32.227,34.180,27.832,0
1528296336.872,18.066,35.645,32.227,36.133,27.344,0
1528296336.876,39.551,36.133,30.273,36.621,1.465,0
1528296336.880,40.039,39.062,29.297,32.715,15.137,0
1528296336.884,18.066,40.527,32.227,27.832,75.195,0
1528296336.888,9.766,39.062,33.203,22.461,49.805,0
1528296336.891,22.949,38.574,32.715,30.762,-19.043,0
1528296336.895,43.945,41.016,37.109,39.551,-16.602,0
1528296336.899,33.691,42.480,39.551,34.180,49.316,0
1528296336.903,2.930,41.992,39.062,25.391,22.461,0
1528296336.907,7.812,38.086,36.133,30.762,27.344,0
1528296336.904,34.668,38.086,35.645,40.527,55.176,0
1528296336.908,27.832,42.969,37.109,32.227,51.270,0
1528296336.912,4.395,43.457,35.645,23.926,49.805,0
1528296336.916,12.207,41.504,32.715,24.902,-0.488,0
1528296336.920,42.480,43.945,28.809,32.227,-6.348,0
1528296336.924,36.133,44.434,29.785,29.785,30.762,0
1528296336.928,10.254,41.992,31.250,21.484,37.598,0
1528296336.931,10.742,43.457,27.832,27.832,-4.883,0
1528296336.935,24.902,42.969,27.344,31.738,-1.465,0
1528296336.939,35.156,42.969,31.250,27.832,41.504,0
1528296336.943,26.855,42.480,31.250,27.832,10.742,0
1528296336.947,12.207,42.480,29.297,21.973,-36.621,0
1528296336.964,29.785,44.922,25.391,25.391,-9.277,0
1528296336.968,52.246,47.363,24.414,37.109,-7.324,0
1528296336.972,38.086,44.922,26.367,32.715,-15.625,0
1528296336.976,20.996,41.504,25.391,26.855,14.160,0
1528296336.980,30.273,37.109,27.344,34.668,29.785,0
1528296336.984,44.922,38.574,29.297,39.062,41.992,0
1528296336.988,30.273,40.039,28.809,34.668,72.266,0
1528296336.991,9.766,39.062,32.227,28.320,53.711,0
1528296336.995,25.879,40.039,36.133,31.250,-12.695,0
1528296336.999,53.223,41.992,37.109,41.504,56.152,0
1528296337.003,51.758,43.945,33.203,37.109,54.199,0
1528296337.007,23.926,43.457,30.762,29.297,12.695,0
1528296337.004,17.578,40.039,32.227,27.832,65.430,0
1528296337.008,40.039,40.527,34.180,39.551,47.852,0
1528296337.012,51.758,41.992,34.180,45.898,58.594,0
1528296337.016,32.227,42.480,33.203,37.598,137.207,0
1528296337.020,13.184,43.945,34.668,31.250,72.754,0
1528296337.024,22.949,46.875,37.109,35.645,22.461,0
1528296337.028,45.898,50.293,37.109,43.945,86.426,0
1528296337.031,41.016,50.293,32.715,38.574,100.586,0
1528296337.035,15.625,47.363,29.785,26.855,6.836,0
1528296337.039,16.602,45.898,31.250,23.926,-56.152,0
1528296337.043,38.086,47.363,28.809,30.273,15.137,0
1528296337.047,41.504,48.340,27.832,30.762,50.293,0
1528296337.043,20.508,48.828,28.809,23.438,20.996,0
1528296337.047,13.672,45.898,28.809,18.066,5.859,0
1528296337.051,36.133,44.922,28.809,26.855,52.246,0
1528296337.055,44.922,50.293,29.785,31.250,48.340,0
1528296337.059,22.949,48.340,28.809,21.973,19.043,0
1528296337.063,6.836,41.992,29.785,20.508,48.828,0
1528296337.067,27.344,41.504,31.738,28.809,69.824,0
1528296337.070,42.969,42.969,33.691,32.715,33.691,0
1528296337.074,10.254,40.527,33.691,20.508,29.785,0
1528296337.078,-2.930,37.109,21.973,15.137,33.203,0
1528296337.082,18.066,37.598,23.438,19.531,-19.043,0
1528296337.086,37.109,39.062,31.738,20.996,18.555,0
1528296337.103,29.785,40.527,30.273,25.879,29.297,0
1528296337.107,2.441,41.016,31.250,21.973,-3.418,0
1528296337.111,9.277,39.551,32.227,24.414,5.371,0
1528296337.115,39.062,40.527,34.668,33.203,36.621,0
1528296337.119,41.992,41.504,34.180,29.297,67.871,0
1528296337.123,14.648,38.574,31.250,22.461,35.156,0
1528296337.127,4.883,38.086,30.273,20.508,-28.320,0
1528296337.130,27.344,41.016,31.738,24.902,0.000,0
1528296337.134,45.898,38.574,33.691,28.809,38.574,0
1528296337.138,20.996,38.086,32.715,23.438,18.555,0
1528296337.142,7.324,42.969,30.762,21.973,-0.977,0
1528296337.146,28.809,42.480,28.809,29.785,65.430,0
1528296337.141,41.016,43.457,29.785,35.156,48.340,0
1528296337.145,32.227,45.410,31.250,30.273,-4.395,0
1528296337.149,17.090,44.434,34.668,24.902,10.742,0
1528296337.153,18.066,39.551,31.738,29.297,-16.113,0
1528296337.157,34.180,35.156,29.297,29.297,-13.184,0
1528296337.161,25.391,34.668,35.645,24.902,27.344,0
1528296337.165,3.906,36.133,37.598,19.043,24.414,0
1528296337.168,14.648,40.527,34.668,21.973,32.715,0
1528296337.172,44.434,38.574,33.203,39.551,59.082,0
1528296337.176,44.434,37.109,37.109,42.969,-1.953,0
1528296337.180,16.113,41.016,38.086,27.832,15.137,0
1528296337.184,11.719,40.527,35.645,26.367,60.547,0
1528296337.184,32.227,37.598,34.180,33.691,58.594,0
1528296337.188,45.898,36.621,35.645,36.133,52.734,0
1528296337.192,26.367,39.551,38.086,31.250,61.035,0
1528296337.196,8.789,41.504,39.062,30.762,79.102,0
1528296337.200,25.391,37.109,37.109,38.086,14.648,0
1528296337.204,49.805,35.645,34.180,42.969,51.758,0
1528296337.208,34.180,38.574,39.551,40.039,61.523,0
1528296337.211,5.371,37.598,40.039,33.203,-8.301,0
1528296337.215,6.348,35.645,34.668,33.203,48.340,0
1528296337.219,35.156,37.109,29.785,38.574,101.562,0
1528296337.223,34.180,34.668,28.320,32.715,16.113,0
1528296337.227,-1.465,34.180,36.133,25.391,60.059,0
1528296337.244,5.859,37.598,38.086,30.762,77.148,0
1528296337.248,30.273,37.598,39.062,39.062,7.812,0
1528296337.252,33.691,36.621,39.062,35.156,30.762,0
1528296337.256,12.695,39.062,35.645,24.414,25.879,0
1528296337.260,6.348,38.086,35.156,25.391,14.648,0
1528296337.264,28.320,39.551,36.621,35.156,-8.789,0
1528296337.268,31.738,40.527,38.086,36.133,-40.039,0
1528296337.271,10.254,34.668,37.598,30.762,1.465,0
1528296337.275,0.000,32.227,34.668,25.879,-12.695,0
1528296337.279,18.555,35.156,35.645,29.297,26.367,0
1528296337.283,43.945,35.156,36.133,35.156,41.992,0
1528296337.287,32.715,36.133,36.621,39.062,13.672,0
1528296337.284,13.184,38.574,35.645,35.156,29.297,0
1528296337.288,28.320,39.551,34.180,31.738,28.809,0
1528296337.292,47.852,39.062,34.180,36.621,68.848,0
1528296337.296,32.715,36.133,32.715,33.203,67.871,0
1528296337.300,8.301,33.691,32.227,26.367,61.035,0
1528296337.304,6.348,33.203,29.785,34.180,55.176,0
1528296337.308,35.645,34.180,29.297,42.480,71.777,0
1528296337.311,47.363,34.180,33.691,41.504,42.480,0
1528296337.315,30.273,34.668,34.180,34.668,-29.297,0
1528296337.319,17.578,36.621,36.133,36.133,-8.301,0
1528296337.323,25.391,37.109,33.691,39.062,17.090,0
1528296337.327,45.898,37.109,31.738,37.598,15.625,0
1528296337.324,30.273,39.551,40.039,29.785,-11.719,0
1528296337.328,11.719,41.504,41.992,28.809,1.953,0
1528296337.332,16.113,40.039,41.992,34.180,75.195,0
1528296337.336,37.598,39.062,43.945,34.180,49.805,0
1528296337.340,37.109,41.504,41.992,29.785,-3.418,0
1528296337.344,12.695,42.969,41.504,25.879,-26.367,0
1528296337.348,17.578,39.551,39.551,21.973,-1.465,0
1528296337.351,43.945,37.598,35.645,25.879,30.273,0
1528296337.355,30.762,40.039,37.598,24.902,20.996,0
1528296337.359,5.859,43.457,37.109,16.602,40.527,0
1528296337.363,6.348,40.527,34.180,21.484,25.391,0
1528296337.367,30.762,37.598,36.133,28.809,24.414,0
1528296337.384,38.574,39.551,38.574,30.273,78.125,0
1528296337.388,19.043,42.969,37.598,23.926,62.988,0
1528296337.392,12.207,45.410,37.598,22.949,48.340,0
1528296337.396,28.809,41.504,40.527,32.227,31.738,0
1528296337.400,48.828,39.062,40.039,39.062,32.715,0
1528296337.404,32.715,39.551,37.109,38.574,66.895,0
1528296337.408,8.789,38.086,37.598,34.180,32.715,0
1528296337.411,26.855,39.551,37.598,37.598,45.898,0
1528296337.415,59.570,41.016,37.598,42.969,14.648,0
1528296337.419,50.293,40.527,40.527,41.016,1.465,0
1528296337.423,27.344,42.480,36.621,34.668,61.523,0
1528296337.427,25.391,41.992,31.738,34.180,93.262,0
1528296337.424,51.758,41.016,32.715,41.016,69.336,0
1528296337.428,59.082,47.363,32.715,36.621,80.566,0
1528296337.432,25.391,48.828,32.715,29.785,56.641,0
1528296337.436,17.090,44.922,33.691,29.785,-19.531,0
1528296337.440,32.227,44.922,34.180,34.668,33.691,0
1528296337.444,41.992,45.410,36.133,39.062,58.105,0
1528296337.448,23.438,46.875,37.598,34.180,0.000,0
1528296337.451,8.789,45.410,36.621,33.203,0.488,0
1528296337.455,32.715,44.922,33.203,38.086,10.742,0
1528296337.459,44.434,45.410,33.691,37.598,27.832,0
1528296337.463,24.414,42.969,34.180,30.273,10.742,0
1528296337.467,15.137,41.992,34.180,28.809,23.926,0
1528296337.464,22.461,43.457,31.738,33.691,-0.977,0
1528296337.468,43.945,39.062,27.344,35.156,-36.621,0
1528296337.472,37.598,38.086,33.691,34.180,-52.734,0
1528296337.476,13.672,40.527,36.621,26.367,-12.207,0
1528296337.480,15.137,42.969,36.133,28.320,42.969,0
1528296337.484,38.574,44.922,38.086,34.180,0.000,0
1528296337.488,45.898,46.387,38.574,31.250,-0.488,0
1528296337.491,18.066,44.434,34.668,27.832,33.203,0
1528296337.495,4.395,41.504,34.180,25.391,36.621,0
1528296337.499,30.273,40.527,36.133,32.227,49.805,0
1528296337.503,46.387,40.527,38.086,39.062,22.461,0
1528296337.507,30.273,42.969,39.551,34.180,-12.207,0
1528296337.524,14.648,42.969,38.574,32.715,1.953,0
1528296337.528,22.461,39.062,35.156,33.203,20.508,0
1528296337.532,50.781,41.504,37.109,41.016,66.895,0
1528296337.536,44.922,45.898,39.551,42.480,66.406,0
1528296337.540,10.254,40.527,31.738,22.461,12.695,0
1528296337.544,9.277,37.109,29.785,22.461,5.371,0
1528296337.548,30.273,36.621,35.156,27.832,21.484,0
1528296337.551,32.715,39.062,35.156,20.508,28.809,0
1528296337.555,14.160,40.039,35.156,21.484,26.855,0
1528296337.559,11.719,40.039,33.203,24.902,42.480,0
1528296337.563,35.156,41.016,29.297,30.762,23.438,0
1528296337.567,45.410,45.410,32.227,31.250,79.590,0
1528296337.564,24.902,47.363,39.062,22.949,137.695,0
1528296337.568,9.277,45.410,38.574,24.902,30.762,0
1528296337.572,30.762,43.457,37.598,33.203,27.832,0
1528296337.576,47.852,44.922,39.551,35.156,72.266,0
1528296337.580,30.762,48.828,40.039,29.785,52.734,0
1528296337.584,21.973,45.410,39.551,29.297,-0.977,0
1528296337.588,32.227,41.504,36.621,35.156,-25.391,0
1528296337.591,44.922,40.527,36.133,37.598,27.344,0
1528296337.595,40.039,41.016,36.621,39.062,58.105,0
1528296337.599,16.602,42.480,31.738,35.645,60.059,0
1528296337.603,18.066,42.480,34.180,36.621,12.207,0
1528296337.607,51.758,41.992,46.387,50.293,-11.719,0
1528296337.603,47.363,39.062,44.922,47.852,6.348,0
1528296337.607,19.043,38.086,38.574,37.109,2.930,0
1528296337.611,12.695,41.504,40.527,33.691,41.504,0
1528296337.615,28.320,43.945,42.480,37.598,26.367,0
1528296337.619,40.039,45.898,41.504,38.574,-13.672,0
1528296337.623,19.531,45.898,37.598,30.762,-20.996,0
1528296337.627,9.766,44.434,35.645,27.832,-15.625,0
1528296337.630,30.762,41.016,38.086,32.715,17.090,0
1528296337.634,43.457,40.039,38.574,32.715,55.176,0
1528296337.638,31.250,43.457,37.109,32.227,56.152,0
1528296337.642,14.160,48.340,39.551,31.738,41.504,0
1528296337.646,25.879,51.758,38.086,34.180,16.113,0
1528296337.663,43.945,49.805,35.645,37.598,40.039,0
1528296337.667,30.273,43.457,34.668,29.785,66.895,0
1528296337.671,4.883,41.016,34.668,22.461,35.156,0
1528296337.675,11.719,43.945,38.574,25.879,31.250,0
1528296337.679,38.086,45.410,37.109,33.203,70.312,0
1528296337.683,41.016,47.363,37.109,38.086,77.637,0
1528296337.687,17.578,49.805,37.109,27.344,37.109,0
1528296337.690,9.277,48.828,33.203,23.926,25.879,0
1528296337.694,34.180,47.852,30.762,37.598,72.754,0
1528296337.698,46.387,47.363,28.320,36.133,78.125,0
1528296337.702,19.531,45.410,28.809,20.996,43.457,0
1528296337.706,1.465,45.410,31.250,19.043,63.965,0
1528296337.703,26.855,49.316,33.691,29.785,57.617,0
1528296337.707,42.969,47.363,33.203,31.738,20.996,0
1528296337.711,21.484,46.875,30.273,26.367,19.043,0
1528296337.715,5.371,50.293,29.297,23.926,53.711,0
1528296337.719,15.137,48.828,30.762,31.738,90.820,0
1528296337.723,35.645,46.387,30.762,37.598,38.574,0
1528296337.727,38.574,48.828,29.297,30.762,62.012,0
1528296337.730,15.625,47.852,31.250,20.996,63.477,0
1528296337.734,8.789,44.922,34.180,24.414,15.625,0
1528296337.738,27.832,46.875,38.086,33.203,40.527,0
1528296337.742,37.598,49.316,38.086,32.715,-13.184,0
1528296337.746,28.809,50.293,35.156,32.227,-46.387,0
1528296337.743,20.020,45.898,35.645,38.086,-14.160,0
1528296337.747,38.574,44.434,32.227,43.945,-4.883,0
1528296337.751,51.270,47.363,30.762,43.457,29.297,0
1528296337.755,36.621,46.875,37.109,38.086,60.059,0
1528296337.759,12.695,42.969,39.551,32.715,-28.809,0
1528296337.763,9.277,39.062,37.598,37.109,12.695,0
1528296337.767,36.133,39.062,35.645,39.062,45.898,0
1528296337.770,32.715,43.457,37.598,32.715,54.688,0
1528296337.774,6.348,45.410,35.645,25.879,79.102,0
1528296337.778,16.113,40.527,33.691,26.367,29.297,0
1528296337.782,39.551,38.574,31.738,32.227,13.672,0
1528296337.786,41.504,41.504,26.367,28.809,44.922,0
1528296337.802,8.301,42.969,27.832,20.020,41.992,0
1528296337.806,-3.418,46.875,30.762,16.113,54.688,0
1528296337.810,31.738,49.805,31.738,20.020,74.707,0
1528296337.814,38.574,42.969,35.645,20.996,63.965,0
1528296337.818,12.207,41.504,33.691,12.695,62.012,0
1528296337.822,-0.488,46.387,30.762,15.137,60.547,0
1528296337.826,20.020,48.340,31.250,24.902,12.695,0
1528296337.829,39.062,48.828,35.645,23.438,-59.082,0
1528296337.833,20.508,44.434,32.715,19.043,-38.574,0
1528296337.837,0.977,42.480,27.344,20.020,18.066,0
1528296337.841,15.625,42.969,30.762,21.484,19.531,0
1528296337.845,30.273,41.992,30.762,22.949,11.230,0
1528296337.844,25.391,44.434,31.250,20.508,14.648,0
1528296337.848,7.324,43.945,34.668,17.090,9.766,0
1528296337.852,6.836,42.480,37.598,20.508,10.254,0
1528296337.856,34.180,45.410,36.133,29.297,103.516,0
1528296337.860,36.133,46.387,33.691,31.250,92.285,0
1528296337.864,14.648,43.457,32.715,22.461,27.832,0
1528296337.868,12.207,41.504,33.691,24.414,39.551,0
1528296337.871,34.180,41.504,35.156,30.273,55.664,0
1528296337.875,42.480,41.504,36.133,31.738,40.039,0
1528296337.879,11.719,42.969,38.574,26.367,27.832,0
1528296337.883,1.953,42.480,34.668,21.484,-10.254,0
1528296337.887,24.414,42.480,33.691,30.762,-1.953,0
1528296337.883,46.387,41.016,36.621,32.715,60.059,0
1528296337.887,32.227,39.551,34.180,24.414,20.508,0
1528296337.891,7.812,41.992,32.715,20.996,-25.391,0
1528296337.895,19.531,42.480,30.762,26.855,-31.738,0
1528296337.899,45.410,41.016,24.902,34.180,17.578,0
1528296337.903,36.133,40.527,27.344,33.691,55.664,0
1528296337.907,10.254,40.527,32.227,26.367,28.320,0
1528296337.910,12.207,44.434,35.156,25.879,41.016,0
1528296337.914,38.086,47.363,35.645,35.156,44.434,0
1528296337.918,49.316,45.410,32.227,38.086,41.504,0
1528296337.922,25.879,45.898,31.250,33.691,46.875,0
1528296337.926,13.672,45.410,30.762,34.668,48.340,0
1528296337.943,34.180,43.457,32.715,39.551,54.688,0
1528296337.947,49.805,41.992,33.203,37.598,68.359,0
1528296337.951,28.320,42.969,32.715,29.297,21.973,0
1528296337.955,11.719,44.922,31.738,24.902,31.250,0
1528296337.959,36.621,47.852,31.250,35.156,67.871,0
1528296337.963,51.758,50.293,31.250,41.504,28.320,0
1528296337.967,35.156,50.781,32.715,31.738,34.180,0
1528296337.970,22.461,49.316,30.273,25.879,4.395,0
1528296337.974,22.949,45.898,29.785,26.855,7.812,0
1528296337.978,39.551,42.480,30.762,33.203,37.109,0
1528296337.982,37.598,41.992,34.180,34.180,49.805,0
1528296337.986,15.625,43.457,32.227,22.949,44.922,0
1528296337.984,12.695,41.992,25.391,23.438,30.273,0
1528296337.988,34.668,41.016,24.902,29.297,49.805,0
1528296337.992,49.805,42.480,22.461,30.762,33.203,0
1528296337.996,19.531,42.969,24.414,26.367,-3.418,0
1528296338.000,8.789,41.016,33.203,25.879,-25.391,0
1528296338.004,36.621,38.574,36.133,33.203,-8.301,0
1528296338.008,45.898,41.504,37.109,28.320,66.895,0
1528296338.011,35.156,42.969,36.133,25.879,60.547,0
1528296338.015,12.207,39.062,32.715,26.367,45.410,0
1528296338.019,12.695,37.109,30.273,25.391,39.551,0
1528296338.023,38.086,38.086,31.250,30.273,15.137,0
1528296338.027,28.320,40.039,34.180,25.879,10.742,0
1528296338.024,0.488,41.992,32.227,23.926,5.371,0
1528296338.028,3.906,41.504,28.320,29.785,75.195,0
1528296338.032,27.832,40.039,31.250,32.227,72.754,0
1528296338.036,40.527,41.504,34.180,28.809,3.418,0
1528296338.040,19.043,41.504,32.715,28.809,-4.883,0
1528296338.044,7.812,40.527,33.691,36.133,45.898,0
1528296338.048,38.086,39.551,33.691,46.387,48.340,0
1528296338.051,48.340,40.039,33.691,41.016,7.812,0
1528296338.055,27.344,40.039,32.227,32.715,29.297,0
1528296338.059,22.949,40.527,32.715,42.969,79.590,0
1528296338.063,47.363,41.504,34.180,48.828,72.266,0
1528296338.067,64.941,41.016,31.250,50.781,75.684,0
1528296338.084,44.434,42.480,30.273,44.922,31.250,0
1528296338.088,23.926,45.898,32.227,39.551,16.602,0
1528296338.092,32.227,42.480,31.250,41.016,26.855,0
1528296338.096,51.758,39.062,30.762,46.387,32.227,0
1528296338.100,43.945,39.062,30.273,45.410,21.484,0
1528296338.104,9.277,35.645,28.320,35.156,-7.324,0
1528296338.108,11.230,33.691,25.391,32.227,51.270,0
1528296338.111,46.875,36.133,25.879,41.016,36.133,0
1528296338.115,44.434,37.109,34.668,42.969,-0.488,0
1528296338.119,20.508,37.598,40.527,39.551,60.059,0
1528296338.123,13.672,40.527,42.480,40.039,57.129,0
1528296338.127,32.715,41.016,41.504,41.016,-26.855,0
1528296338.124,47.363,41.992,39.551,39.062,5.859,0
1528296338.128,22.949,42.480,37.109,29.785,62.012,0
1528296338.132,6.836,39.062,36.133,27.344,45.410,0
1528296338.136,23.926,38.574,37.109,33.203,38.086,0
1528296338.140,36.133,39.551,36.621,35.645,47.363,0
1528296338.144,18.066,36.133,38.086,29.785,26.855,0
1528296338.148,-1.953,37.109,41.016,23.438,14.160,0
1528296338.151,14.648,39.062,41.016,24.902,50.781,0
1528296338.155,41.016,39.551,39.551,29.785,69.824,0
1528296338.159,27.344,40.039,40.039,23.926,-17.090,0
1528296338.163,2.930,36.621,36.621,15.137,1.465,0
1528296338.167,0.488,35.645,32.715,19.531,27.344,0
1528296338.163,21.484,34.668,34.668,31.738,50.781,0
1528296338.167,20.996,34.180,37.598,33.203,40.039,0
1528296338.171,-5.859,37.598,37.109,24.414,-4.883,0
1528296338.175,-5.859,35.645,34.180,22.461,-0.488,0
1528296338.179,19.531,36.621,33.691,32.227,9.766,0
1528296338.183,31.738,42.480,36.621,40.527,31.250,0
1528296338.187,15.137,41.504,32.715,33.691,8.301,0
1528296338.190,-5.371,37.109,31.250,23.926,-18.555,0
1528296338.194,17.578,39.551,36.621,28.320,-17.090,0
1528296338.198,48.340,41.504,38.574,41.992,30.762,0
1528296338.202,35.156,38.086,38.574,39.551,30.273,0
1528296338.206,14.648,39.062,39.062,34.668,1.465,0
1528296338.224,22.461,40.527,35.645,38.086,29.785,0
1528296338.228,50.781,41.992,31.738,39.551,85.938,0
1528296338.232,47.363,42.480,33.203,32.227,68.359,0
1528296338.236,20.508,41.016,34.180,27.344,62.988,0
1528296338.240,12.207,40.527,34.180,31.250,51.758,0
1528296338.244,29.785,40.527,34.668,36.133,20.508,0
1528296338.248,39.062,41.504,38.086,37.598,25.879,0
1528296338.251,24.902,44.434,39.551,27.344,52.734,0
1528296338.255,12.695,46.387,38.574,23.438,2.441,0
1528296338.259,29.785,44.922,37.109,36.133,-46.875,0
1528296338.263,43.945,45.410,35.645,38.086,26.855,0
1528296338.267,30.762,45.410,36.621,30.762,55.664,0
1528296338.263,15.137,44.434,37.109,31.738,-29.785,0
1528296338.267,24.902,46.875,37.598,37.109,3.906,0
1528296338.271,55.664,47.363,40.527,45.410,42.480,0
1528296338.275,46.387,43.945,42.969,42.969,26.855,0
1528296338.279,16.113,43.945,38.574,32.715,46.875,0
1528296338.283,15.137,43.945,34.668,34.668,12.695,0
1528296338.287,41.504,41.992,33.691,43.457,37.109,0
1528296338.290,51.758,40.039,31.738,39.062,44.434,0
1528296338.294,27.344,40.039,34.668,27.832,-30.762,0
1528296338.298,8.301,41.992,37.109,23.438,27.832,0
1528296338.302,30.762,43.457,32.715,27.832,118.164,0
1528296338.306,48.340,43.457,31.738,31.250,80.566,0
1528296338.323,27.832,42.480,34.180,26.855,13.672,0
1528296338.327,7.812,42.480,32.227,20.020,31.250,0
1528296338.331,22.461,41.504,31.250,22.949,-3.906,0
1528296338.335,45.410,42.480,30.273,23.926,-8.301,0
1528296338.339,28.320,41.992,25.879,17.578,-11.230,0
1528296338.343,5.859,41.992,26.855,18.066,-36.621,0
1528296338.347,14.648,41.992,31.738,21.484,-0.977,0
1528296338.350,30.762,40.527,28.809,18.066,41.992,0
1528296338.354,33.691,45.410,26.367,13.672,18.066,0
1528296338.358,17.578,47.363,36.621,18.066,1.953,0
1528296338.362,8.301,41.016,36.133,18.555,4.395,0
1528296338.366,29.297,37.598,32.715,25.391,-2.441,0
1528296338.364,33.691,39.551,36.133,25.391,32.227,0
1528296338.368,8.301,41.992,33.203,13.184,71.289,0
1528296338.372,2.930,42.480,33.203,18.555,83.008,0
1528296338.376,28.809,41.504,36.133,31.738,32.715,0
1528296338.380,38.574,40.039,34.180,33.203,37.109,0
1528296338.384,14.648,41.016,35.156,28.320,33.691,0
1528296338.388,0.977,42.480,36.621,21.973,26.367,0
1528296338.391,20.996,40.527,35.156,27.832,28.320,0
1528296338.395,47.363,37.109,32.715,33.203,37.109,0
1528296338.399,37.109,36.133,35.156,31.250,21.973,0
1528296338.403,9.766,35.645,38.086,26.367,17.578,0
1528296338.407,17.090,36.133,39.551,29.785,42.969,0
1528296338.404,50.781,36.621,41.504,34.180,20.996,0
1528296338.408,45.898,38.574,43.457,29.297,21.973,0
1528296338.412,19.043,38.574,40.527,29.785,43.945,0
1528296338.416,11.719,36.621,38.086,31.250,18.555,0
1528296338.420,37.109,38.574,39.551,37.109,-37.109,0
1528296338.424,46.875,42.480,41.992,44.434,-5.371,0
1528296338.428,21.484,41.992,38.574,34.180,30.762,0
1528296338.431,18.066,41.016,36.133,28.320,-10.742,0
1528296338.435,35.156,41.016,34.180,39.062,-37.109,0
1528296338.439,39.551,38.574,34.668,35.645,15.625,0
1528296338.443,30.762,38.574,35.645,27.344,2.930,0
1528296338.447,20.020,37.109,31.250,26.367,6.836,0
1528296338.464,32.715,35.645,29.785,33.203,39.062,0
1528296338.468,47.852,39.062,35.156,43.945,51.270,0
1528296338.472,36.621,39.062,40.039,38.086,89.844,0
1528296338.476,16.113,39.062,41.504,33.691,29.297,0
1528296338.480,14.160,38.574,41.016,39.062,22.949,0
1528296338.484,38.574,37.598,34.668,41.016,26.367,0
1528296338.488,31.250,35.645,35.645,33.691,18.066,0
1528296338.491,1.953,34.180,44.434,23.926,45.410,0
1528296338.495,12.207,35.156,47.363,25.391,33.203,0
1528296338.499,39.551,34.668,44.922,34.668,49.316,0
1528296338.503,41.992,33.691,41.992,34.180,68.848,0
1528296338.507,11.719,31.250,40.039,22.461,49.316,0
1528296338.504,-1.953,31.738,40.039,19.531,25.391,0
1528296338.508,19.043,32.715,40.039,26.367,29.785,0
1528296338.512,33.203,31.738,38.574,29.297,21.484,0
1528296338.516,13.184,33.203,37.598,19.043,7.324,0
1528296338.520,-7.812,33.203,37.598,15.137,-11.230,0
1528296338.524,7.812,34.668,38.086,20.508,22.461,0
1528296338.528,37.598,38.574,39.062,23.438,20.508,0
1528296338.531,30.762,41.016,39.062,28.320,31.250,0
1528296338.535,10.254,41.992,34.668,27.832,57.617,0
1528296338.539,20.508,41.992,32.227,29.785,57.129,0
1528296338.543,40.039,41.992,34.180,37.598,96.680,0
1528296338.547,37.109,38.574,35.156,34.180,38.574,0
1528296338.544,22.461,37.598,37.109,30.273,1.953,0
1528296338.548,17.090,38.574,39.062,35.156,-10.254,0
1528296338.552,38.574,40.039,39.062,39.551,0.488,0
1528296338.556,45.410,41.992,36.621,34.668,48.340,0
1528296338.560,19.531,40.527,36.133,27.832,41.992,0
1528296338.564,7.812,41.504,41.016,28.320,59.570,0
1528296338.568,22.949,40.527,38.086,36.621,76.172,0
1528296338.571,42.480,37.598,32.715,41.504,23.438,0
1528296338.575,22.461,39.551,30.762,34.180,-8.789,0
1528296338.579,2.441,40.527,33.203,26.367,-10.742,0
1528296338.583,21.973,39.062,33.203,34.180,49.316,0
1528296338.587,42.969,38.086,32.227,37.109,81.543,0
1528296338.604,34.180,39.551,32.227,30.273,71.289,0
1528296338.608,-0.488,39.062,31.250,24.414,52.246,0
1528296338.612,-2.441,35.645,28.320,24.902,27.344,0
1528296338.616,26.855,35.645,29.785,31.250,-9.766,0
1528296338.620,34.668,38.574,35.645,33.691,72.266,0
1528296338.624,13.672,40.527,37.109,32.227,109.863,0
1528296338.628,1.953,38.574,34.180,29.785,35.156,0
1528296338.631,21.484,38.574,32.715,32.715,35.645,0
1528296338.635,45.410,41.504,32.227,43.457,20.996,0
1528296338.639,30.273,45.898,33.691,43.457,-1.953,0
1528296338.643,16.602,45.898,32.715,36.621,3.418,0
1528296338.647,28.809,43.457,28.809,45.410,15.625,0
1528296338.645,45.410,42.969,31.738,45.898,27.344,0
1528296338.649,40.039,43.457,33.691,39.551,-17.090,0
1528296338.653,16.113,41.992,29.785,32.227,-10.742,0
1528296338.657,17.090,41.016,30.762,30.762,25.879,0
1528296338.661,35.156,42.480,33.203,30.273,46.875,0
1528296338.665,28.809,43.945,34.180,28.320,70.801,0
1528296338.669,3.906,44.434,35.645,24.902,28.320,0
1528296338.672,0.000,44.922,37.598,22.461,-29.785,0
1528296338.676,31.250,42.480,37.109,24.414,31.738,0
1528296338.680,31.738,41.016,32.227,15.625,87.402,0
1528296338.684,-2.441,40.527,29.785,3.418,98.633,0
1528296338.688,-5.371,39.062,30.762,5.371,67.383,0
1528296338.684,20.020,41.016,31.738,17.090,33.691,0
1528296338.688,40.527,44.434,33.203,26.855,58.594,0
1528296338.692,21.973,47.852,37.598,26.367,22.949,0
1528296338.696,1.953,46.387,35.156,19.531,17.578,0
1528296338.700,20.508,42.480,34.180,23.438,-13.672,0
1528296338.704,37.598,42.969,40.039,33.203,-26.367,0
1528296338.708,29.297,41.992,41.992,30.273,29.297,0
1528296338.711,11.230,37.109,37.109,23.438,71.289,0
1528296338.715,6.836,39.551,34.668,23.926,37.109,0
1528296338.719,24.414,42.480,39.062,30.273,4.883,0
1528296338.723,40.527,39.551,41.016,33.691,70.312,0
1528296338.727,27.344,39.062,37.598,34.668,81.543,0
1528296338.744,17.578,39.551,33.691,39.062,52.734,0
1528296338.748,37.598,37.598,31.250,42.969,63.965,0
1528296338.752,47.852,40.527,34.668,44.922,48.828,0
1528296338.756,28.320,41.992,31.738,36.621,50.781,0
1528296338.760,16.113,41.016,27.344,36.133,32.715,0
1528296338.764,31.250,41.992,31.738,43.457,-32.715,0
1528296338.768,41.504,41.016,31.250,40.527,24.414,0
1528296338.771,28.809,38.086,33.203,34.180,86.426,0
1528296338.775,18.066,37.109,35.156,30.762,46.387,0
1528296338.779,24.414,40.527,32.715,38.086,-6.836,0
1528296338.783,44.922,43.457,34.180,41.016,25.391,0
1528296338.787,32.227,40.039,36.133,36.621,44.434,0
1528296338.784,11.719,37.598,36.621,32.715,53.223,0
1528296338.788,12.695,38.086,35.645,26.367,35.645,0
1528296338.792,38.086,39.062,32.715,26.367,8.301,0
1528296338.796,42.480,40.039,32.715,27.344,14.160,0
1528296338.800,10.742,39.551,34.180,27.832,20.996,0
1528296338.804,3.418,40.527,31.250,29.297,34.180,0
1528296338.808,28.320,41.992,25.879,31.250,37.109,0
1528296338.811,42.480,41.504,29.785,32.227,15.625,0
1528296338.815,26.855,42.480,37.109,24.902,40.039,0
1528296338.819,10.254,43.945,36.133,24.902,49.316,0
1528296338.823,18.555,42.480,36.133,28.320,26.855,0
1528296338.827,39.062,40.527,36.621,35.156,23.926,0
1528296338.824,25.879,38.574,33.691,34.668,-3.906,0
1528296338.828,6.348,39.551,32.227,30.273,8.789,0
1528296338.832,21.973,39.551,35.645,35.645,34.668,0
1528296338.836,46.387,38.086,34.180,37.109,12.695,0
1528296338.840,37.598,42.480,33.203,32.715,39.062,0
1528296338.844,11.230,41.016,33.691,28.809,47.363,0
1528296338.848,12.207,37.598,29.297,28.320,10.742,0
1528296338.851,40.039,41.016,29.785,29.785,14.160,0
1528296338.855,38.574,42.480,32.227,28.809,2.930,0
1528296338.859,13.672,38.574,33.691,22.949,-24.902,0
1528296338.863,9.277,34.668,32.715,23.438,31.250,0
1528296338.867,24.902,34.668,30.762,28.809,66.895,0
1528296338.884,41.992,37.598,33.691,33.203,75.684,0
1528296338.888,26.367,41.992,36.133,32.715,37.109,0
1528296338.892,7.812,41.016,33.691,24.414,-8.301,0
1528296338.896,20.996,38.086,31.738,24.414,-3.418,0
1528296338.900,39.062,40.039,32.227,27.344,41.992,0
1528296338.904,23.926,41.504,30.762,23.926,46.875,0
1528296338.908,-4.395,38.086,31.738,23.926,15.625,0
1528296338.911,4.395,39.551,32.227,24.902,29.297,0
1528296338.915,40.527,41.992,31.738,27.832,53.223,0
1528296338.919,40.527,42.480,35.156,29.297,52.246,0
1528296338.923,12.695,42.480,34.180,23.926,13.184,0
1528296338.927,10.254,40.039,32.715,26.367,50.781,0
1528296338.924,38.086,41.016,36.621,40.527,41.504,0
1528296338.928,47.852,45.410,39.551,43.457,22.461,0
1528296338.932,24.414,45.898,37.598,32.227,17.090,0
1528296338.936,11.719,44.922,36.133,29.785,-5.859,0
1528296338.940,21.973,44.434,33.691,36.133,33.691,0
1528296338.944,33.691,43.457,30.273,38.574,64.453,0
1528296338.948,25.879,44.434,32.715,30.762,39.062,0
1528296338.951,6.836,43.945,36.133,22.461,-28.809,0
1528296338.955,18.555,41.504,39.062,28.809,-15.625,0
1528296338.959,40.527,42.480,39.062,37.109,61.035,0
1528296338.963,25.391,41.504,36.621,28.320,10.742,0
1528296338.967,5.371,39.062,34.180,26.855,-35.156,0
1528296338.964,12.695,39.551,33.203,31.250,7.812,0
1528296338.968,38.086,41.504,33.691,32.715,22.461,0
1528296338.972,41.992,43.945,33.691,32.227,44.434,0
1528296338.976,18.555,43.945,34.180,26.855,55.664,0
1528296338.980,18.066,43.457,36.133,30.762,17.090,0
1528296338.984,41.504,43.945,34.180,34.180,33.203,0
1528296338.988,47.852,42.969,31.738,31.250,32.227,0
1528296338.991,20.996,41.016,29.785,23.926,-2.930,0
1528296338.995,-0.488,38.086,29.785,20.508,13.672,0
1528296338.999,26.855,38.086,31.250,28.320,18.066,0
1528296339.003,50.781,40.527,31.738,35.645,39.062,0
1528296339.007,32.715,43.457,31.250,29.785,74.219,0
1528296339.023,10.254,42.480,28.809,28.320,44.922,0
1528296339.027,19.043,42.480,27.344,28.809,6.836,0
1528296339.031,48.340,46.875,35.156,31.250,24.902,0
1528296339.035,45.898,46.875,41.016,30.762,64.941,0
1528296339.039,14.648,45.410,39.551,23.438,21.484,0
1528296339.043,15.137,44.922,40.527,30.273,-35.645,0
1528296339.047,37.598,43.945,41.992,35.645,10.254,0
1528296339.050,43.457,44.922,35.645,26.367,50.293,0
1528296339.054,25.391,44.922,32.227,20.020,44.922,0
1528296339.058,12.207,42.480,30.762,21.484,-7.812,0
1528296339.062,32.227,40.527,29.785,30.762,-25.391,0
1528296339.066,38.574,37.598,33.691,35.156,59.570,0
1528296339.062,16.602,39.062,34.668,24.902,94.727,0
1528296339.066,4.395,38.574,34.668,22.461,55.176,0
1528296339.070,16.602,35.645,34.668,24.414,32.715,0
1528296339.074,34.180,36.621,31.738,23.438,33.203,0
1528296339.078,23.926,38.574,28.809,16.602,-8.301,0
1528296339.082,-1.953,36.133,28.809,12.207,36.133,0
1528296339.086,4.883,37.598,28.809,12.695,62.012,0
1528296339.089,32.227,42.969,25.879,19.043,69.336,0
1528296339.093,30.762,40.527,27.832,20.996,71.777,0
1528296339.097,3.906,38.574,33.691,14.648,49.316,0
1528296339.101,-0.488,39.062,28.320,15.625,44.922,0
1528296339.105,29.785,38.086,25.391,22.461,62.988,0
1528296339.124,40.039,37.109,33.203,21.973,46.387,0
1528296339.128,9.766,37.109,37.109,14.160,32.715,0
1528296339.132,-7.324,38.574,37.598,12.695,71.289,0
1528296339.136,16.113,38.574,29.785,20.508,51.270,0
1528296339.140,37.109,41.016,28.809,30.273,27.832,0
1528296339.144,10.742,41.016,32.715,24.414,0.000,0
1528296339.148,8.789,40.039,31.738,19.531,37.598,0
1528296339.151,23.926,39.551,28.320,25.391,45.898,0
1528296339.155,21.973,40.039,26.855,24.902,-44.434,0
1528296339.159,19.531,41.504,28.320,16.113,-47.852,0
1528296339.163,3.906,40.527,31.250,9.766,4.395,0
1528296339.167,4.395,38.574,28.320,13.672,44.434,0
1528296339.164,22.949,40.527,28.320,22.949,65.430,0
1528296339.168,20.996,38.574,30.273,13.672,45.410,0
1528296339.172,3.418,36.133,30.762,8.301,78.613,0
1528296339.176,3.418,37.109,33.691,20.020,15.625,0
1528296339.180,27.344,36.621,35.156,24.902,-26.367,0
1528296339.184,34.668,35.156,35.156,25.391,8.789,0
1528296339.188,23.438,39.551,33.691,23.438,57.129,0
1528296339.191,20.508,41.504,30.273,23.926,77.148,0
1528296339.195,28.809,41.504,28.320,27.832,47.852,0
1528296339.199,47.852,42.480,32.715,32.227,37.598,0
1528296339.203,32.715,40.039,38.086,31.250,-5.859,0
1528296339.207,5.371,40.039,38.086,25.879,-28.809,0
1528296339.204,21.973,38.574,35.156,28.809,4.395,0
1528296339.208,48.828,43.457,35.156,34.180,-19.531,0
1528296339.212,45.898,46.875,33.691,32.227,-31.250,0
1528296339.216,26.855,44.434,34.668,31.738,1.953,0
1528296339.220,23.926,45.410,37.598,35.645,33.203,0
1528296339.224,48.340,45.410,35.645,39.551,40.527,0
1528296339.228,52.734,46.875,31.250,39.551,71.777,0
1528296339.231,26.367,48.828,31.250,24.414,49.316,0
1528296339.235,28.809,48.340,33.691,24.414,-8.789,0
1528296339.239,43.457,44.922,38.574,30.762,-1.465,0
1528296339.243,45.898,43.457,35.156,24.902,51.758,0
1528296339.247,34.180,47.363,29.297,25.391,99.609,0
1528296339.243,22.461,49.316,36.133,27.832,30.762,0
1528296339.247,40.039,45.410,39.551,32.715,-27.344,0
1528296339.251,55.176,44.922,37.109,37.109,-4.395,0
1528296339.255,38.574,45.898,36.621,30.273,41.504,0
1528296339.259,20.020,42.480,35.156,25.391,10.742,0
1528296339.263,27.832,42.480,38.086,33.203,11.230,0
1528296339.267,47.363,42.480,41.992,37.598,45.898,0
1528296339.270,37.109,41.992,39.062,31.250,41.504,0
1528296339.274,12.695,41.992,36.621,20.020,31.250,0
1528296339.278,22.949,41.016,35.156,20.996,83.008,0
1528296339.282,46.875,41.504,35.156,29.785,93.750,0
1528296339.286,51.758,42.969,34.668,29.785,66.406,0
1528296339.303,27.344,46.387,34.668,24.414,68.359,0
1528296339.307,18.555,47.852,38.086,28.320,83.008,0
1528296339.311,41.016,46.875,39.062,34.180,64.453,0
1528296339.315,52.734,45.898,35.645,35.156,45.410,0
1528296339.319,36.621,46.387,35.156,32.715,43.945,0
1528296339.323,17.090,46.875,35.156,30.273,49.316,0
1528296339.327,29.785,45.410,34.668,38.086,39.551,0
1528296339.330,55.664,46.875,36.133,44.922,37.109,0
1528296339.334,42.969,50.293,38.086,40.527,48.340,0
1528296339.338,26.367,50.781,40.527,36.621,-23.926,0
1528296339.342,31.738,46.875,41.016,41.504,-29.297,0
1528296339.346,44.434,46.875,36.621,47.363,39.062,0
1528296339.344,46.387,46.387,34.668,39.551,24.414,0
1528296339.348,27.832,45.898,37.598,36.621,54.199,0
1528296339.352,21.484,43.457,39.062,41.992,30.762,0
1528296339.356,45.898,40.039,38.086,52.734,-15.137,0
1528296339.360,57.617,43.457,40.527,61.035,62.988,0
1528296339.364,25.391,46.387,40.527,41.992,66.406,0
1528296339.368,6.348,43.945,37.598,26.855,8.301,0
1528296339.371,29.785,40.039,38.574,36.133,-10.742,0
1528296339.375,38.574,38.574,40.039,35.156,23.438,0
1528296339.379,16.113,41.016,39.062,23.926,62.012,0
1528296339.383,6.348,44.434,40.039,23.438,21.973,0
1528296339.387,20.020,45.410,45.410,31.738,2.441,0
1528296339.384,42.480,45.410,46.387,41.992,-1.465,0
1528296339.388,36.133,42.969,37.598,38.574,-23.438,0
1528296339.392,0.977,39.062,37.109,28.320,-6.836,0
1528296339.396,6.836,38.086,41.992,34.180,19.531,0
1528296339.400,43.945,38.086,40.527,45.898,31.250,0
1528296339.404,35.645,39.551,39.062,45.410,24.902,0
1528296339.408,11.719,42.480,37.109,41.504,16.113,0
1528296339.411,12.207,44.434,38.086,37.109,-2.441,0
1528296339.415,35.645,43.945,38.086,36.621,-8.301,0
1528296339.419,49.316,40.527,37.598,39.551,7.324,0
1528296339.423,28.320,42.480,36.133,37.598,57.617,0
1528296339.427,14.648,45.410,36.133,38.086,26.855,0
1528296339.444,28.320,42.480,36.133,41.016,-0.488,0
1528296339.448,41.504,40.527,32.715,40.527,13.184,0
1528296339.452,29.785,43.945,27.832,33.691,-6.348,0
1528296339.456,17.090,43.945,26.367,33.691,12.207,0
1528296339.460,28.809,41.992,29.785,41.504,45.410,0
1528296339.464,41.992,45.898,34.668,46.387,33.203,0
1528296339.468,33.203,46.387,38.086,36.133,-42.969,0
1528296339.471,18.066,42.480,37.109,28.320,-3.906,0
1528296339.475,22.949,45.898,40.039,39.551,52.734,0
1528296339.479,50.293,44.434,41.504,46.387,26.367,0
1528296339.483,41.992,37.598,36.133,34.668,55.176,0
1528296339.487,14.648,40.527,34.180,26.367,59.570,0
1528296339.484,18.066,43.457,33.691,27.344,49.316,0
1528296339.488,38.574,44.922,32.227,31.250,54.688,0
1528296339.492,38.574,43.457,31.738,29.297,65.430,0
1528296339.496,18.555,43.457,32.227,27.832,85.449,0
1528296339.500,5.371,41.992,34.668,26.855,41.992,0
1528296339.504,20.020,41.504,37.598,29.785,4.395,0
1528296339.508,40.527,45.410,40.527,32.227,18.555,0
1528296339.511,25.879,43.457,39.551,25.391,31.738,0
1528296339.515,10.742,41.504,36.621,26.855,43.457,0
1528296339.519,12.695,41.016,35.645,26.367,54.199,0
1528296339.523,33.691,40.527,37.109,29.785,66.406,0
1528296339.527,36.133,42.480,37.598,31.738,36.621,0
1528296339.524,14.160,42.480,27.832,19.531,-4.395,0
1528296339.528,13.672,40.039,28.320,17.578,21.484,0
1528296339.532,30.762,40.039,38.086,25.391,81.543,0
1528296339.536,37.109,40.527,35.645,26.855,99.609,0
1528296339.540,23.926,41.992,34.180,20.020,29.785,0
1528296339.544,10.742,46.387,33.691,22.461,8.789,0
1528296339.548,28.320,45.898,32.715,33.691,17.090,0
1528296339.551,41.992,44.922,35.645,27.344,35.645,0
1528296339.555,21.973,44.434,35.156,19.531,32.715,0
1528296339.559,16.113,41.992,29.297,22.949,-24.414,0
1528296339.563,29.297,41.504,29.297,27.832,14.648,0
1528296339.567,42.480,41.504,33.203,30.762,38.086,0
1528296339.584,29.297,41.992,31.738,30.273,-3.418,0
1528296339.588,7.812,41.992,27.832,20.996,-18.066,0
1528296339.592,13.184,41.016,28.809,19.531,6.836,0
1528296339.596,38.086,39.551,34.180,30.762,43.945,0
1528296339.600,33.203,37.598,37.109,31.738,22.461,0
1528296339.604,-5.371,40.527,36.621,24.902,-69.336,0
1528296339.608,-5.371,42.969,35.645,23.926,-59.570,0
1528296339.611,35.156,44.922,36.133,34.180,44.434,0
1528296339.615,44.922,44.922,33.691,37.598,58.105,0
1528296339.619,26.855,42.969,31.738,29.785,0.488,0
1528296339.623,2.441,42.969,33.203,27.832,-1.465,0
1528296339.627,16.602,44.434,32.715,31.250,18.555,0
1528296339.624,39.062,43.945,34.180,27.344,-6.348,0
1528296339.628,20.020,42.969,34.668,18.066,22.949,0
1528296339.632,5.371,44.922,33.203,20.020,46.875,0
1528296339.636,12.695,46.875,31.738,24.902,46.387,0
1528296339.640,29.297,44.434,33.203,31.250,80.566,0
1528296339.644,26.367,44.434,27.344,27.344,38.574,0
1528296339.648,5.859,45.898,26.367,21.484,13.184,0
1528296339.651,18.066,42.480,36.621,24.414,78.613,0
1528296339.655,44.922,41.016,37.109,33.691,71.289,0
1528296339.659,28.809,45.410,35.156,28.320,31.738,0
1528296339.663,7.812,45.410,35.156,18.066,29.297,0
1528296339.667,9.766,42.969,33.203,22.949,32.715,0
1528296339.684,35.156,40.039,31.738,28.809,62.012,0
1528296339.688,48.340,42.480,32.227,35.156,83.008,0
1528296339.692,16.602,42.969,29.297,24.902,83.496,0
1528296339.696,2.930,40.527,25.391,17.578,78.125,0
1528296339.700,30.273,42.969,27.344,29.297,44.434,0
1528296339.704,41.504,44.922,34.180,34.668,6.348,0
1528296339.708,10.254,42.480,32.227,23.438,-12.207,0
1528296339.711,-17.090,43.945,27.832,14.160,-36.133,0
1528296339.715,3.906,47.852,27.832,19.531,-1.953,0
1528296339.719,40.527,45.410,28.320,28.320,37.598,0
1528296339.723,37.109,44.434,28.809,27.832,-5.859,0
1528296339.727,11.719,42.480,28.809,23.926,-14.648,0
1528296339.722,11.230,41.992,26.367,25.879,41.016,0
1528296339.726,38.574,43.457,28.809,29.785,44.922,0
1528296339.730,39.551,41.992,31.738,30.762,54.688,0
1528296339.734,12.207,41.016,31.250,25.391,59.082,0
1528296339.738,2.930,40.527,30.273,23.926,0.977,0
1528296339.742,26.855,44.434,32.227,28.809,26.367,0
1528296339.746,43.457,46.875,31.738,29.785,41.016,0
1528296339.749,34.180,46.387,22.461,26.367,62.012,0
1528296339.753,21.484,44.434,23.438,25.391,54.688,0
1528296339.757,22.949,40.039,31.250,32.715,10.254,0
1528296339.761,33.203,37.598,32.715,28.809,-4.395,0
1528296339.765,20.996,38.574,29.297,20.996,50.781,0
1528296339.764,14.160,41.016,28.320,25.879,63.477,0
1528296339.768,30.762,43.945,32.227,32.227,91.309,0
1528296339.772,49.316,44.922,37.109,39.551,83.008,0
1528296339.776,32.715,42.480,36.133,34.668,20.996,0
1528296339.780,8.301,40.527,33.203,28.320,16.113,0
1528296339.784,9.277,41.016,33.203,31.250,7.324,0
1528296339.788,32.715,43.945,34.180,33.203,47.852,0
1528296339.791,43.945,45.410,33.691,35.156,81.055,0
1528296339.795,16.602,46.387,37.109,33.691,68.359,0
1528296339.799,1.953,43.945,38.574,24.902,31.738,0
1528296339.803,30.273,42.480,34.668,26.855,40.527,0
1528296339.807,44.922,43.945,33.691,31.250,22.461,0
1528296339.803,24.414,41.016,34.180,25.391,14.160,0
1528296339.807,12.207,40.527,34.668,29.297,22.461,0
1528296339.811,26.367,45.410,34.180,34.668,-15.625,0
1528296339.815,45.898,47.852,31.738,35.645,6.836,0
1528296339.819,36.621,47.363,31.738,34.180,6.836,0
1528296339.823,8.789,48.340,32.227,28.320,-9.277,0
1528296339.827,14.648,45.898,28.320,27.832,15.137,0
1528296339.830,39.062,46.387,28.320,26.855,9.766,0
1528296339.834,36.133,43.945,32.715,21.973,47.852,0
1528296339.838,16.113,39.062,28.809,22.949,138.672,0
1528296339.842,13.672,41.016,22.949,25.391,58.594,0
1528296339.846,39.062,43.945,31.250,37.598,26.367,0
1528296339.864,43.945,42.480,38.086,35.156,71.777,0
1528296339.868,18.066,41.016,38.086,24.414,0.488,0
1528296339.872,10.254,39.062,34.668,27.832,-10.742,0
1528296339.876,29.297,40.527,32.227,30.273,45.410,0
1528296339.880,41.016,41.504,34.180,31.250,7.812,0
1528296339.884,19.043,41.504,34.668,29.297,0.488,0
1528296339.888,1.953,39.551,33.203,25.391,13.672,0
1528296339.891,17.578,38.086,31.738,27.344,17.090,0
1528296339.895,42.480,40.039,31.738,37.109,21.484,0
1528296339.899,36.133,37.109,29.297,36.621,45.410,0
1528296339.903,10.254,37.109,29.785,27.344,5.371,0
1528296339.907,12.207,41.992,29.785,28.809,12.207,0
1528296339.904,42.480,41.992,27.344,34.668,80.078,0
1528296339.908,43.945,40.527,28.809,32.715,49.805,0
1528296339.912,12.207,42.480,32.227,28.809,-15.625,0
1528296339.916,7.324,44.922,39.062,27.344,-19.531,0
1528296339.920,33.691,46.875,35.645,33.691,14.648,0
1528296339.924,40.527,45.898,31.250,37.598,20.996,0
1528296339.928,19.531,43.945,30.273,30.762,20.020,0
1528296339.931,18.066,42.480,26.855,27.344,25.879,0
1528296339.935,34.180,44.434,26.367,36.133,41.016,0
1528296339.939,46.875,46.387,31.738,42.480,53.711,0
1528296339.943,33.691,46.387,33.691,35.156,19.043,0
1528296339.947,16.113,45.410,32.715,23.438,23.926,0
1528296339.964,34.668,43.457,30.762,28.809,-13.672,0
1528296339.968,54.688,45.898,30.762,38.574,-6.348,0
1528296339.972,41.016,46.875,31.250,30.762,55.176,0
1528296339.976,19.531,46.387,30.273,20.996,59.570,0
1528296339.980,21.484,47.363,24.902,26.367,14.648,0
1528296339.984,37.109,47.363,20.020,34.668,-4.883,0
1528296339.988,33.203,45.898,26.367,31.250,45.410,0
1528296339.991,4.883,45.410,32.227,22.461,61.035,0
1528296339.995,1.953,45.898,31.738,28.809,12.207,0
1528296339.999,32.227,44.922,32.715,37.598,28.320,0
1528296340.003,46.875,44.434,40.039,35.645,39.551,0
1528296340.007,24.414,47.363,40.039,33.203,22.461,0
1528296340.004,6.836,47.363,33.203,30.762,25.391,0
1528296340.008,25.879,46.875,30.762,34.180,43.945,0
1528296340.012,42.480,47.852,31.250,41.992,38.574,0
1528296340.016,31.250,48.340,26.855,36.621,8.301,0
1528296340.020,13.184,49.805,24.902,26.367,32.227,0
1528296340.024,23.926,52.734,28.320,39.062,28.809,0
1528296340.028,53.223,51.270,30.762,53.223,76.172,0
1528296340.031,52.734,48.340,30.762,45.898,124.023,0
1528296340.035,24.902,49.316,28.809,37.109,9.766,0
1528296340.039,22.461,49.805,24.902,38.574,-33.203,0
1528296340.043,43.457,50.293,27.832,43.945,77.148,0
1528296340.047,47.852,49.805,32.227,40.039,93.262,0
1528296340.044,27.832,46.387,28.320,31.250,46.387,0
1528296340.048,19.531,47.852,28.320,30.762,39.062,0
1528296340.052,40.527,46.387,28.320,33.691,31.738,0
1528296340.056,47.363,45.410,29.785,29.785,31.250,0
1528296340.060,27.832,47.852,31.738,24.902,64.941,0
1528296340.064,10.742,51.270,32.715,25.879,5.371,0
1528296340.068,20.020,52.246,30.273,25.879,-9.277,0
1528296340.071,37.598,50.293,30.273,25.391,12.695,0
1528296340.075,17.578,52.246,36.621,24.414,-43.457,0
1528296340.079,-7.812,52.734,32.227,15.625,-41.992,0
1528296340.083,2.441,53.711,32.715,13.672,29.297,0
1528296340.087,32.227,58.105,39.062,24.414,83.984,0
1528296340.104,29.785,56.152,40.527,22.949,149.414,0
1528296340.108,-0.977,56.152,41.016,16.113,52.246,0
1528296340.112,-9.766,56.152,32.227,8.789,-27.832,0
1528296340.116,2.930,58.105,27.832,8.301,23.926,0
1528296340.120,10.254,61.523,34.180,12.207,68.359,0
1528296340.124,-10.742,63.965,36.133,5.859,36.621,0
1528296340.128,-43.457,60.547,34.668,-20.996,1.465,0
1528296340.131,-33.691,54.199,38.086,-28.809,53.711,0
1528296340.135,-12.695,52.734,42.969,-26.367,-2.441,0
1528296340.139,-42.969,57.617,42.480,-45.410,-55.664,0
1528296340.143,-62.012,61.523,40.527,-48.340,-0.488,0
1528296340.147,-61.035,59.082,41.504,-45.898,6.836,0
1528296340.144,-60.059,55.664,41.504,-60.547,29.297,0
1528296340.148,-69.336,58.594,36.621,-70.312,41.504,0
1528296340.152,-92.773,62.012,34.180,-74.707,13.672,0
1528296340.156,-102.539,62.012,37.109,-86.914,-1.953,0
1528296340.160,-88.379,62.012,37.598,-88.867,50.293,0
1528296340.164,-81.543,66.406,38.574,-90.332,56.152,0
1528296340.168,-104.004,72.266,37.598,-103.516,62.988,0
1528296340.171,-109.375,72.266,37.109,-98.633,79.102,0
1528296340.175,-79.590,67.871,36.621,-80.078,44.434,0
1528296340.179,-66.406,64.453,37.109,-76.660,60.547,0
1528296340.183,-86.426,63.965,38.086,-73.730,70.801,0
1528296340.187,-83.496,62.500,33.691,-66.895,68.848,0
1528296340.184,-49.316,58.105,38.086,-50.293,37.598,0
1528296340.188,-21.484,53.223,41.016,-35.156,-6.348,0
1528296340.192,-26.367,48.828,37.598,-35.645,-5.371,0
1528296340.196,-41.016,50.293,34.668,-29.297,-26.367,0
1528296340.200,-15.137,53.223,30.762,-6.836,7.812,0
1528296340.204,20.020,48.340,31.738,9.277,25.391,0
1528296340.208,21.484,44.922,39.062,12.695,30.762,0
1528296340.211,10.742,44.434,37.109,21.973,49.316,0
1528296340.215,16.602,44.922,28.320,38.086,23.926,0
1528296340.219,52.734,46.387,28.320,47.363,31.250,0
1528296340.223,67.383,42.969,32.227,50.781,64.941,0
1528296340.227,46.875,41.016,31.250,53.711,18.555,0
1528296340.245,48.340,41.504,25.879,58.594,1.465,0
1528296340.249,68.848,38.574,27.832,64.941,-4.883,0
1528296340.253,87.891,41.016,34.668,71.289,25.391,0
1528296340.257,78.125,39.551,36.133,70.312,62.500,0
1528296340.261,61.523,34.180,28.809,70.801,46.875,0
1528296340.265,76.172,36.133,31.738,82.520,62.500,0
1528296340.269,92.285,38.086,35.156,85.938,24.414,0
1528296340.272,78.125,36.621,31.738,70.801,24.414,0
1528296340.276,62.012,34.668,29.785,70.312,26.367,0
1528296340.280,69.824,32.715,28.320,78.125,45.410,0
1528296340.284,96.191,34.668,32.227,84.473,59.082,0
1528296340.288,92.773,36.133,36.133,83.496,25.879,0
1528296340.284,64.453,36.621,27.832,75.195,21.973,0
1528296340.288,64.941,38.086,26.367,76.172,12.207,0
1528296340.292,86.914,35.156,23.438,81.055,40.527,0
1528296340.296,89.355,36.621,20.020,81.055,38.574,0
1528296340.300,62.500,40.039,29.785,77.148,-1.465,0
1528296340.304,48.828,39.551,32.227,76.660,-30.273,0
1528296340.308,78.125,39.551,32.227,84.961,1.953,0
1528296340.311,95.703,35.645,30.762,83.984,-13.672,0
1528296340.315,73.730,34.668,27.832,73.730,-40.039,0
1528296340.319,54.199,36.621,29.297,73.242,1.953,0
1528296340.323,61.035,35.645,26.855,72.266,47.852,0
1528296340.327,82.031,36.133,21.973,73.242,51.758,0
1528296340.324,82.031,40.039,25.391,75.195,20.508,0
1528296340.328,58.105,41.992,26.855,70.312,17.090,0
1528296340.332,59.082,40.527,21.973,75.195,17.090,0
1528296340.336,79.590,39.062,21.484,75.195,44.922,0
1528296340.340,78.613,39.062,23.926,67.383,80.078,0
1528296340.344,55.664,42.480,26.855,65.430,86.914,0
1528296340.348,47.852,41.504,26.367,65.430,46.875,0
1528296340.351,73.730,42.969,23.926,70.312,40.527,0
1528296340.355,74.219,44.922,22.949,62.988,101.562,0
1528296340.359,48.340,44.922,21.484,52.246,75.195,0
1528296340.363,45.410,46.387,21.973,54.688,10.254,0
1528296340.367,66.406,46.875,21.973,59.082,-21.973,0
1528296340.384,76.172,43.457,22.949,62.012,37.598,0
1528296340.388,52.246,43.457,24.902,55.176,65.430,0
1528296340.392,29.297,42.969,19.531,53.711,0.488,0
1528296340.396,45.410,40.039,16.113,59.082,39.551,0
1528296340.400,65.430,44.434,17.090,56.641,17.578,0
1528296340.404,54.199,44.922,18.066,50.781,-32.227,0
1528296340.408,27.832,39.551,19.531,42.969,50.781,0
1528296340.411,30.273,40.527,20.020,36.133,40.527,0
1528296340.415,60.547,40.527,21.484,45.898,2.441,0
1528296340.419,62.012,40.039,24.902,45.898,5.859,0
1528296340.423,34.668,42.480,27.832,41.016,34.668,0
1528296340.427,23.926,41.016,21.484,41.992,41.992,0
1528296340.423,44.434,40.039,16.602,46.875,-10.742,0
1528296340.427,57.617,40.527,26.367,53.223,43.457,0
1528296340.431,39.062,40.039,29.297,47.363,14.160,0
1528296340.435,20.508,38.086,27.832,35.156,-27.832,0
1528296340.439,34.668,37.109,28.320,39.062,50.781,0
1528296340.443,48.340,38.086,24.902,42.969,21.484,0
1528296340.447,29.297,36.133,22.461,36.621,-17.090,0
1528296340.450,14.160,36.133,24.414,35.156,-53.223,0
1528296340.454,29.785,36.133,25.879,39.551,-30.762,0
1528296340.458,49.316,35.645,29.785,45.898,-6.836,0
1528296340.462,36.133,36.133,31.250,40.527,-35.645,0
1528296340.466,21.484,36.621,26.367,37.598,-9.766,0
1528296340.465,22.949,34.668,23.926,41.992,50.781,0
1528296340.469,42.969,30.273,21.973,44.922,60.059,0
1528296340.473,41.504,29.785,22.461,47.363,86.426,0
1528296340.477,21.973,34.180,26.367,43.457,99.609,0
1528296340.481,21.973,34.180,27.832,45.898,13.184,0
1528296340.485,35.645,33.691,28.320,44.434,-15.625,0
1528296340.489,48.828,35.156,25.391,40.527,0.000,0
1528296340.492,30.762,36.133,24.414,39.062,62.012,0
1528296340.496,12.695,35.156,25.391,39.551,65.430,0
1528296340.500,35.645,36.133,22.461,43.457,33.203,0
1528296340.504,57.129,36.621,25.879,47.852,26.367,0
1528296340.508,40.039,34.668,31.250,43.457,28.809,0
1528296340.524,26.367,35.156,29.785,36.621,69.336,0
1528296340.528,28.320,36.133,26.855,38.574,-25.391,0
1528296340.532,48.828,35.156,29.785,42.969,-11.719,0
1528296340.536,51.270,33.203,29.297,41.992,72.266,0
1528296340.540,23.438,33.691,20.996,34.180,34.668,0
1528296340.544,20.020,31.250,17.578,37.109,43.945,0
1528296340.548,34.668,31.738,24.414,41.504,36.621,0
1528296340.551,41.992,36.133,27.344,32.715,-41.016,0
1528296340.555,29.297,37.109,25.391,25.391,-37.598,0
1528296340.559,14.648,37.109,27.344,28.320,10.742,0
1528296340.563,36.133,38.574,28.809,36.133,43.945,0
1528296340.567,48.828,41.016,31.250,39.062,93.750,0
1528296340.564,27.832,42.969,31.738,30.273,58.594,0
1528296340.568,10.254,39.551,29.785,21.973,43.457,0
1528296340.572,23.438,35.156,28.809,30.273,43.945,0
1528296340.576,42.480,37.109,29.297,35.645,37.598,0
1528296340.580,23.926,35.645,28.320,23.926,19.043,0
1528296340.584,8.301,35.645,28.320,24.414,2.441,0
1528296340.588,19.531,38.086,30.762,37.598,-13.672,0
1528296340.591,40.527,38.086,30.273,40.527,33.203,0
1528296340.595,41.504,37.598,30.273,32.715,121.582,0
1528296340.599,12.695,39.551,33.203,28.320,52.734,0
1528296340.603,6.348,42.969,33.691,26.855,-43.945,0
1528296340.607,38.574,41.504,30.762,33.691,50.781,0
1528296340.605,53.223,43.945,27.344,37.598,117.188,0
1528296340.609,29.785,43.945,30.273,35.156,82.520,0
1528296340.613,8.301,40.527,30.273,39.062,41.992,0
1528296340.617,34.668,41.992,25.391,45.898,28.320,0
1528296340.621,60.059,43.457,26.855,41.016,48.828,0
1528296340.625,29.297,40.527,29.297,33.203,13.184,0
1528296340.629,11.230,39.551,29.297,28.809,16.113,0
1528296340.632,27.344,39.551,30.273,34.668,33.203,0
1528296340.636,40.039,37.109,32.227,38.574,36.621,0
1528296340.640,36.133,38.086,31.738,27.832,70.312,0
1528296340.644,21.484,41.992,29.297,26.855,6.348,0
1528296340.648,27.832,43.457,30.273,31.250,-26.367,0
1528296340.665,53.711,45.410,28.809,35.645,68.359,0
1528296340.669,51.270,47.363,24.902,36.133,33.691,0
1528296340.673,18.066,45.898,24.902,30.273,-34.180,0
1528296340.677,13.672,42.969,25.879,30.273,-10.742,0
1528296340.681,37.598,40.039,32.227,35.645,-42.969,0
1528296340.685,45.410,39.551,35.156,34.668,9.277,0
1528296340.689,17.090,41.016,35.645,26.855,58.594,0
1528296340.692,6.348,41.992,34.668,22.949,8.301,0
1528296340.696,35.645,41.992,32.227,33.691,33.203,0
1528296340.700,47.363,41.016,36.133,35.645,50.293,0
1528296340.704,30.273,39.062,38.086,26.367,42.480,0
1528296340.708,16.602,39.062,36.621,24.902,51.270,0
1528296340.704,32.227,39.551,33.691,31.250,37.598,0
1528296340.708,55.664,39.551,34.180,40.039,26.367,0
1528296340.712,46.875,40.039,33.691,38.086,22.949,0
1528296340.716,23.438,42.480,29.785,31.250,26.855,0
1528296340.720,26.367,46.387,31.738,37.109,25.391,0
1528296340.724,46.875,45.410,33.203,43.945,19.043,0
1528296340.728,55.664,44.434,35.156,38.574,25.879,0
1528296340.731,32.715,44.434,32.227,25.391,41.992,0
1528296340.735,16.602,41.016,24.414,23.926,16.602,0
1528296340.739,34.668,41.504,25.879,31.738,21.973,0
1528296340.743,44.922,40.039,27.344,25.391,52.246,0
1528296340.747,35.645,39.551,27.832,21.973,26.367,0
1528296340.744,20.508,41.992,31.250,22.949,-3.418,0
1528296340.748,31.250,40.527,30.273,28.809,-3.906,0
1528296340.752,49.316,39.062,30.273,33.203,54.199,0
1528296340.756,36.621,40.527,31.738,27.344,71.777,0
1528296340.760,11.719,39.551,32.715,22.461,12.695,0
1528296340.764,12.695,34.668,32.227,25.879,23.438,0
1528296340.768,38.574,33.691,32.715,34.180,39.551,0
1528296340.771,37.109,36.621,34.668,33.203,-0.977,0
1528296340.775,8.789,38.086,33.691,23.926,4.395,0
1528296340.779,13.184,37.109,29.297,25.391,36.133,0
1528296340.783,40.527,39.551,32.227,39.062,32.227,0
1528296340.787,44.434,40.039,29.785,42.480,86.426,0
1528296340.805,21.484,42.480,29.297,34.668,33.203,0
1528296340.809,11.230,42.969,35.156,24.902,-31.738,0
1528296340.813,34.180,41.504,34.668,29.785,43.457,0
1528296340.817,47.363,41.504,35.156,35.156,81.055,0
1528296340.821,27.832,43.945,37.109,30.273,66.406,0
1528296340.825,9.277,46.875,36.133,29.785,19.043,0
1528296340.829,22.949,47.852,34.668,34.668,31.738,0
1528296340.832,51.758,45.898,34.668,33.691,39.551,0
1528296340.836,42.480,43.945,33.203,25.391,-26.855,0
1528296340.840,20.508,47.852,37.109,24.902,-44.922,0
1528296340.844,20.020,48.340,38.574,26.855,64.453,0
1528296340.848,39.551,46.875,37.109,31.250,64.453,0
1528296340.845,48.340,43.457,30.762,26.855,62.012,0
1528296340.849,18.555,42.480,25.879,18.066,79.590,0
1528296340.853,8.301,44.434,28.809,20.996,60.059,0
1528296340.857,33.691,43.457,29.785,28.809,18.066,0
1528296340.861,40.039,43.945,29.297,33.203,3.906,0
1528296340.865,15.625,43.457,29.297,21.973,45.410,0
1528296340.869,8.789,43.945,28.809,17.090,33.691,0
1528296340.872,29.297,42.480,27.832,26.367,39.551,0
1528296340.876,45.898,40.039,30.762,31.250,44.922,0
1528296340.880,20.020,39.062,30.762,24.902,41.504,0
1528296340.884,0.977,40.039,34.180,24.414,38.086,0
1528296340.888,23.926,38.086,31.738,34.180,22.461,0
1528296340.884,43.945,36.621,27.832,38.086,21.973,0
1528296340.888,39.551,38.086,31.738,32.715,26.367,0
1528296340.892,17.578,41.016,35.156,22.949,46.387,0
1528296340.896,15.137,39.551,32.227,22.461,18.555,0
1528296340.900,39.551,37.109,24.414,30.762,11.230,0
1528296340.904,45.410,39.551,30.762,30.273,41.016,0
1528296340.908,24.902,42.480,40.039,23.926,13.184,0
1528296340.911,8.301,43.457,38.086,21.973,0.000,0
1528296340.915,23.926,41.016,35.156,25.391,74.219,0
1528296340.919,41.504,38.574,35.645,28.809,100.098,0
1528296340.923,21.484,36.621,34.180,24.902,80.566,0
1528296340.927,6.836,37.109,33.691,18.555,60.547,0
1528296340.944,21.484,41.992,36.621,23.438,10.742,0
1528296340.948,39.551,41.992,36.621,29.785,15.137,0
1528296340.952,26.367,40.039,37.598,24.414,8.301,0
1528296340.956,4.395,40.039,36.621,19.043,12.207,0
1528296340.960,16.113,36.133,32.715,22.461,17.578,0
1528296340.964,36.621,34.668,35.645,33.691,-6.836,0
1528296340.968,22.949,35.156,37.598,28.809,45.898,0
1528296340.971,10.254,34.668,37.598,20.996,65.430,0
1528296340.975,16.113,35.645,38.086,29.297,57.129,0
1528296340.979,39.062,36.621,36.621,32.715,72.266,0
1528296340.983,44.434,38.086,35.645,31.250,8.301,0
1528296340.987,20.508,39.551,34.668,29.297,1.953,0
1528296340.982,16.602,39.062,32.715,28.320,32.715,0
1528296340.986,41.016,41.016,34.180,34.180,54.199,0
1528296340.990,53.711,43.945,37.598,39.551,46.875,0
1528296340.994,30.273,41.992,37.598,34.180,25.391,0
1528296340.998,15.137,41.016,35.156,30.762,25.391,0
1528296341.002,28.809,40.039,35.156,41.992,69.824,0
1528296341.006,46.875,38.574,32.227,45.410,66.406,0
1528296341.009,35.645,40.039,29.297,28.320,59.570,0
1528296341.013,12.695,41.016,28.809,24.414,56.152,0
1528296341.017,13.672,39.551,24.414,25.879,5.859,0
1528296341.021,41.992,41.992,28.809,26.855,55.176,0
1528296341.025,46.875,44.922,35.645,32.715,123.047,0
1528296341.024,17.578,45.410,34.668,29.297,27.344,0
1528296341.028,18.555,46.387,32.715,29.297,-12.695,0
1528296341.032,43.945,47.852,32.715,40.527,1.953,0
1528296341.036,48.828,45.898,31.738,35.156,-23.926,0
1528296341.040,25.391,41.992,29.785,20.996,37.109,0
1528296341.044,10.254,41.016,30.273,25.879,27.344,0
1528296341.048,30.273,42.969,30.273,32.227,-38.574,0
1528296341.051,49.805,43.457,30.762,31.738,5.371,0
1528296341.055,29.297,41.016,29.785,30.273,11.719,0
1528296341.059,12.207,41.016,28.320,23.926,-7.812,0
1528296341.063,21.484,41.992,27.832,25.391,28.809,0
1528296341.067,43.945,40.527,30.273,32.715,44.434,0
1528296341.084,32.715,37.598,35.156,31.250,14.160,0
1528296341.088,7.324,33.691,31.738,24.414,19.043,0
1528296341.092,14.648,35.156,28.320,28.320,56.152,0
1528296341.096,39.062,36.621,31.250,35.645,43.945,0
1528296341.100,41.016,37.109,33.691,26.855,24.902,0
1528296341.104,10.254,39.551,34.180,20.508,2.930,0
1528296341.108,-3.418,37.598,34.668,22.461,24.902,0
1528296341.111,25.879,37.598,31.250,24.902,27.832,0
1528296341.115,41.992,42.480,25.391,27.832,18.555,0
1528296341.119,19.043,45.898,30.273,22.461,34.180,0
1528296341.123,6.348,44.434,36.621,19.531,67.383,0
1528296341.127,22.949,43.945,36.133,32.227,43.945,0
1528296341.125,42.969,41.016,34.668,33.691,37.598,0
1528296341.129,30.273,35.156,38.086,25.391,46.875,0
1528296341.133,5.371,35.645,34.180,23.926,-1.953,0
1528296341.137,10.254,36.621,31.250,27.832,-30.273,0
1528296341.141,35.645,37.109,34.668,32.227,30.762,0
1528296341.145,31.250,39.551,38.086,25.879,10.742,0
1528296341.149,6.836,38.086,38.086,21.973,1.953,0
1528296341.152,10.742,38.574,34.180,22.949,74.219,0
1528296341.156,39.062,41.504,33.203,33.203,67.383,0
1528296341.160,33.691,41.992,37.109,29.297,87.402,0
1528296341.164,16.602,42.969,38.574,21.484,61.035,0
1528296341.168,22.949,41.504,34.668,27.344,-11.230,0
1528296341.165,41.992,39.551,32.227,31.738,44.434,0
1528296341.169,54.688,40.039,32.715,31.250,63.965,0
1528296341.173,31.738,38.574,31.738,27.832,41.504,0
1528296341.177,15.625,38.086,30.273,33.691,33.691,0
1528296341.181,32.227,38.086,30.273,37.109,16.113,0
1528296341.185,45.410,38.086,33.203,34.180,12.695,0
1528296341.189,35.156,39.062,35.645,35.156,40.039,0
1528296341.192,12.207,39.551,35.645,31.250,37.109,0
1528296341.196,16.113,42.480,35.645,28.809,22.949,0
1528296341.200,51.758,46.387,36.621,41.016,27.832,0
1528296341.204,48.828,45.410,31.738,38.574,24.414,0
1528296341.208,20.020,45.898,28.809,30.762,9.277,0
1528296341.225,19.043,48.828,36.621,34.668,13.184,0
1528296341.229,45.410,48.340,39.551,35.156,26.367,0
1528296341.233,49.805,45.410,37.598,34.180,0.488,0
1528296341.237,23.438,44.434,36.133,27.832,1.953,0
1528296341.241,14.160,43.945,38.086,27.832,-24.902,0
1528296341.245,23.438,42.969,37.109,34.668,-36.133,0
1528296341.249,35.645,47.363,35.156,31.250,1.953,0
1528296341.252,32.715,48.340,30.273,24.414,12.695,0
1528296341.256,17.090,45.898,32.715,23.926,41.992,0
1528296341.260,24.902,43.457,38.086,31.738,32.227,0
1528296341.264,44.922,41.504,36.133,34.668,20.020,0
1528296341.268,28.320,41.016,34.668,23.438,11.230,0
1528296341.265,9.277,40.039,35.645,19.531,51.270,0
1528296341.269,23.438,40.527,36.133,28.320,70.312,0
1528296341.273,42.480,41.016,29.785,29.785,45.410,0
1528296341.277,31.250,42.480,31.250,24.902,-2.441,0
1528296341.281,7.812,42.480,39.062,20.996,20.020,0
1528296341.285,4.883,41.504,40.039,20.508,49.316,0
1528296341.289,27.344,41.016,39.551,24.902,13.672,0
1528296341.292,41.992,41.016,39.062,30.762,68.848,0
1528296341.296,14.648,38.086,40.039,23.438,39.551,0
1528296341.300,-5.859,37.109,41.504,18.555,0.977,0
1528296341.304,24.414,36.133,41.016,31.250,34.180,0
1528296341.308,42.480,33.691,37.109,33.203,17.578,0
1528296341.304,20.020,35.645,36.133,22.949,14.648,0
1528296341.308,0.000,34.668,36.133,20.508,16.602,0
1528296341.312,10.742,33.691,39.062,31.250,-7.812,0
1528296341.316,38.574,37.598,38.574,39.551,44.434,0
1528296341.320,33.203,38.086,32.227,34.668,53.711,0
1528296341.324,9.277,40.039,32.715,29.297,-46.387,0
1528296341.328,11.719,41.504,32.715,29.785,18.066,0
1528296341.331,29.297,40.039,32.227,32.715,88.379,0
1528296341.335,35.156,39.062,30.762,30.762,45.410,0
1528296341.339,18.066,37.109,25.391,25.879,94.238,0
1528296341.343,9.766,36.621,21.973,30.273,85.449,0
1528296341.347,32.227,38.574,25.879,36.621,52.246,0
1528296341.364,39.551,39.062,30.273,33.203,62.988,0
1528296341.368,16.602,39.551,32.227,25.391,13.184,0
1528296341.372,7.324,44.434,31.738,19.531,17.578,0
1528296341.376,26.855,42.969,29.297,24.902,80.078,0
1528296341.380,44.434,36.621,29.297,29.785,60.547,0
1528296341.384,25.391,37.109,27.832,22.949,69.336,0
1528296341.388,5.859,38.086,28.809,20.020,83.496,0
1528296341.391,23.438,39.551,30.762,26.367,34.668,0
1528296341.395,46.875,39.551,31.250,28.320,58.105,0
1528296341.399,40.039,38.574,29.297,24.414,61.523,0
1528296341.403,12.695,40.527,26.855,13.672,-6.836,0
1528296341.407,14.648,43.457,24.902,12.695,7.324,0
1528296341.404,43.945,45.410,22.949,21.484,20.996,0
1528296341.408,41.504,42.480,23.926,20.508,32.715,0
1528296341.412,22.461,40.039,28.809,18.555,76.172,0
1528296341.416,14.648,40.527,36.133,22.461,59.570,0
1528296341.420,34.668,40.527,36.133,32.227,54.199,0
1528296341.424,46.387,43.945,34.668,35.156,32.715,0
1528296341.428,27.344,45.410,38.574,25.879,26.367,0
1528296341.431,15.137,41.016,33.691,24.902,48.828,0
1528296341.435,30.273,40.039,33.691,32.715,40.039,0
1528296341.439,50.781,43.457,40.527,33.203,34.180,0
1528296341.443,40.039,43.945,39.062,26.855,8.789,0
1528296341.447,20.020,42.480,39.062,24.414,-6.348,0
1528296341.443,21.973,42.480,36.621,34.668,-26.367,0
1528296341.447,41.992,41.992,36.133,41.016,16.113,0
1528296341.451,39.551,41.992,36.133,32.227,7.324,0
1528296341.455,20.020,45.410,36.133,20.508,-0.488,0
1528296341.459,18.066,46.387,37.109,23.926,48.828,0
1528296341.463,32.715,44.434,36.621,33.203,30.762,0
1528296341.467,34.180,42.969,37.109,33.203,-1.953,0
1528296341.470,13.184,44.922,37.109,18.066,7.812,0
1528296341.474,7.812,43.457,35.645,11.230,7.812,0
1528296341.478,32.227,39.551,36.621,24.902,30.273,0
1528296341.482,44.922,40.527,35.156,29.785,51.758,0
1528296341.486,17.578,43.457,34.180,23.438,38.574,0
1528296341.505,7.324,44.434,35.645,24.902,27.832,0
1528296341.509,29.785,42.480,32.227,30.273,32.715,0
1528296341.513,44.434,43.945,31.738,31.250,50.781,0
1528296341.517,34.180,41.992,30.762,28.320,42.969,0
1528296341.521,7.324,39.062,23.926,27.344,41.504,0
1528296341.525,2.441,38.086,24.902,31.738,39.062,0
1528296341.529,32.715,40.527,33.691,35.645,-6.348,0
1528296341.532,41.016,42.480,35.645,37.109,28.809,0
1528296341.536,9.277,40.527,34.180,29.785,69.824,0
1528296341.540,5.859,38.086,33.203,19.531,49.805,0
1528296341.544,29.785,37.598,34.668,29.297,24.414,0
1528296341.548,39.062,40.527,33.691,29.785,16.602,0
1528296341.545,22.949,41.016,30.273,20.996,37.109,0
1528296341.549,13.184,40.527,29.297,24.414,15.625,0
1528296341.553,31.250,41.992,28.809,36.621,-14.648,0
1528296341.557,42.480,41.504,32.227,47.363,-11.719,0
1528296341.561,26.855,38.574,32.715,31.738,13.184,0
1528296341.565,3.906,39.551,27.832,18.555,9.766,0
1528296341.569,13.184,41.992,27.832,25.879,-6.836,0
1528296341.572,41.504,38.574,28.809,31.738,18.555,0
1528296341.576,25.391,33.691,27.832,20.020,-8.301,0
1528296341.580,1.953,34.180,30.273,13.672,4.395,0
1528296341.584,15.137,33.203,30.273,29.785,15.625,0
1528296341.588,39.062,35.645,32.227,40.527,-18.555,0
1528296341.605,40.527,35.645,35.645,33.203,-7.812,0
1528296341.609,18.066,35.156,33.203,23.438,31.250,0
1528296341.613,10.742,38.574,31.738,23.438,58.594,0
1528296341.617,32.715,37.598,31.250,30.273,47.363,0
1528296341.621,40.527,34.180,30.273,28.320,-2.441,0
1528296341.625,20.020,36.133,27.344,21.484,22.949,0
1528296341.629,14.160,38.574,29.785,28.320,42.969,0
1528296341.632,27.344,40.039,36.133,28.320,35.645,0
1528296341.636,46.387,40.039,32.715,30.273,51.270,0
1528296341.640,34.668,39.551,31.250,35.156,19.531,0
1528296341.644,18.066,42.969,32.715,26.855,5.859,0
1528296341.648,27.344,43.457,31.250,33.691,38.086,0
1528296341.664,48.340,42.969,32.227,41.992,48.828,0
1528296341.668,45.898,44.922,33.691,37.598,33.203,0
1528296341.672,19.043,42.969,35.156,33.203,19.531,0
1528296341.676,19.043,42.480,36.621,34.180,32.227,0
1528296341.680,44.922,46.875,37.109,40.527,26.367,0
1528296341.684,48.340,49.316,35.156,35.645,74.707,0
1528296341.688,21.973,50.293,32.715,28.320,69.824,0
1528296341.691,12.695,50.293,36.133,29.297,8.789,0
1528296341.695,38.086,46.387,37.109,34.668,39.551,0
1528296341.699,51.758,42.969,35.156,39.551,17.090,0
1528296341.703,27.344,41.504,31.250,29.785,-12.695,0
1528296341.707,17.090,42.480,28.809,24.902,13.184,0
1528296341.684,34.668,43.945,31.250,35.156,4.883,0
1528296341.688,48.340,41.016,32.227,38.574,23.438,0
1528296341.692,34.180,38.574,31.250,27.832,1.465,0
1528296341.696,9.766,38.086,31.738,20.020,-27.832,0
1528296341.700,16.602,37.109,28.320,25.879,0.488,0
1528296341.704,39.062,37.109,28.320,34.180,51.758,0
1528296341.708,39.062,37.109,31.250,32.715,75.195,0
1528296341.711,24.902,37.109,25.391,24.414,37.598,0
1528296341.715,14.648,37.109,26.367,24.414,28.320,0
1528296341.719,37.598,39.551,35.156,35.645,49.316,0
1528296341.723,50.781,37.598,35.645,36.621,80.566,0
1528296341.727,19.531,36.133,37.598,27.832,44.922,0
1528296341.744,6.348,36.621,36.133,22.949,47.363,0
1528296341.748,21.973,33.203,34.180,24.902,33.691,0
1528296341.752,41.992,34.668,34.180,25.391,20.020,0
1528296341.756,34.668,38.086,31.250,18.066,40.039,0
1528296341.760,8.789,36.621,27.832,15.137,49.805,0
1528296341.764,20.020,34.668,27.832,28.320,32.227,0
1528296341.768,49.316,37.598,28.809,38.086,-9.277,0
1528296341.771,36.621,41.992,27.344,32.227,-5.859,0
1528296341.775,13.672,40.527,26.855,27.344,18.555,0
1528296341.779,20.020,37.598,28.320,27.344,89.844,0
1528296341.783,40.039,39.062,30.762,26.367,72.266,0
1528296341.787,32.715,40.527,28.320,27.344,30.273,0
1528296341.785,10.254,39.551,29.297,25.391,89.844,0
1528296341.789,11.230,38.086,34.180,23.926,71.289,0
1528296341.793,28.809,38.086,34.668,28.320,20.020,0
1528296341.797,40.039,39.551,33.691,30.273,8.789,0
1528296341.801,22.461,41.504,37.109,29.297,8.789,0
1528296341.805,3.418,40.527,37.598,28.320,18.066,0
1528296341.809,19.531,40.527,33.203,32.715,61.523,0
1528296341.812,40.039,42.480,33.691,34.180,48.828,0
1528296341.816,23.438,42.969,32.227,29.785,14.648,0
1528296341.820,5.859,43.457,28.320,28.809,83.984,0
1528296341.824,9.766,42.969,27.344,32.715,105.469,0
1528296341.828,36.133,43.457,28.809,35.645,32.227,0
1528296341.825,41.504,47.363,30.273,34.668,3.418,0
1528296341.829,19.043,47.363,27.832,25.879,3.906,0
1528296341.833,15.137,47.852,23.926,25.879,25.879,0
1528296341.837,35.645,49.316,25.391,38.086,51.758,0
1528296341.841,39.062,45.410,25.879,37.109,55.176,0
1528296341.845,12.695,43.945,24.902,29.785,62.012,0
1528296341.849,4.883,43.457,21.484,30.273,41.992,0
1528296341.852,31.738,43.457,25.391,42.480,-1.465,0
1528296341.856,42.480,46.875,33.203,41.016,25.391,0
1528296341.860,24.902,50.293,36.133,26.855,64.941,0
1528296341.864,23.926,50.293,37.598,29.297,43.945,0
1528296341.868,38.574,50.293,31.738,39.551,9.277,0
1528296341.885,56.152,50.781,27.344,40.039,32.227,0
1528296341.889,42.480,46.875,26.855,29.785,38.574,0
1528296341.893,19.043,44.434,27.344,31.250,-18.555,0
1528296341.897,29.297,41.992,24.414,33.203,19.043,0
1528296341.901,48.828,43.457,22.949,34.668,39.062,0
1528296341.905,43.457,46.875,25.391,37.109,46.875,0
1528296341.909,13.672,43.457,24.902,29.297,61.523,0
1528296341.912,5.371,39.551,25.879,23.926,41.992,0
1528296341.916,36.133,39.551,26.367,28.809,32.715,0
1528296341.920,38.574,39.551,24.414,28.809,68.359,0
1528296341.924,10.742,40.039,26.855,20.020,64.453,0
1528296341.928,6.348,40.039,27.832,21.484,15.625,0
1528296341.925,28.809,39.551,23.926,33.691,49.805,0
1528296341.929,42.480,40.527,26.367,29.297,78.613,0
1528296341.933,25.391,42.480,32.715,25.391,65.918,0
1528296341.937,12.695,43.945,31.250,25.879,58.594,0
1528296341.941,21.484,44.922,29.297,26.855,55.664,0
1528296341.945,37.109,44.434,29.297,29.785,14.648,0
1528296341.949,27.832,42.480,26.367,23.926,18.066,0
1528296341.952,13.184,43.945,24.414,21.484,48.828,0
1528296341.956,26.367,41.992,24.902,28.320,39.551,0
1528296341.960,41.992,38.574,25.391,37.109,57.617,0
1528296341.964,34.668,40.039,27.344,32.715,56.152,0
1528296341.968,19.043,39.062,27.832,23.438,38.086,0
1528296341.965,18.066,40.039,29.297,27.344,3.418,0
1528296341.969,38.574,39.062,33.691,32.227,-15.137,0
1528296341.973,40.527,38.086,32.227,31.738,55.176,0
1528296341.977,14.160,37.598,27.832,24.902,72.266,0
1528296341.981,8.301,37.598,24.902,19.531,49.805,0
1528296341.985,24.414,40.039,21.973,28.320,27.344,0
1528296341.989,38.574,38.574,19.043,30.762,28.320,0
1528296341.992,26.855,41.016,26.855,27.832,22.461,0
1528296341.996,-1.465,42.969,34.668,25.879,2.930,0
1528296342.000,14.648,41.016,34.668,24.902,37.109,0
1528296342.004,45.410,38.086,36.133,32.227,56.152,0
1528296342.008,31.738,40.527,34.180,30.762,7.324,0
1528296342.024,8.789,41.016,29.785,16.602,-10.742,0
1528296342.028,10.742,38.086,28.809,15.137,-18.066,0
1528296342.032,38.086,41.504,26.855,27.832,15.625,0
1528296342.036,40.527,43.457,29.297,24.902,75.684,0
1528296342.040,12.695,39.551,30.762,17.578,22.949,0
1528296342.044,4.395,35.645,27.832,24.902,-21.484,0
1528296342.048,21.973,37.598,30.762,28.320,49.316,0
1528296342.051,37.109,39.062,30.273,18.555,59.570,0
1528296342.055,26.855,35.156,22.949,16.602,43.945,0
1528296342.059,11.719,36.621,24.414,27.832,34.180,0
1528296342.063,32.715,38.574,29.785,31.250,27.344,0
1528296342.067,50.293,41.016,30.762,32.715,47.852,0
1528296342.064,41.992,44.922,30.273,27.832,46.875,0
1528296342.068,21.973,42.480,31.250,23.926,0.000,0
1528296342.072,20.996,40.039,27.832,33.203,-17.090,0
1528296342.076,44.922,39.062,28.809,39.062,39.062,0
1528296342.080,31.250,35.156,34.180,31.738,72.754,0
1528296342.084,2.930,32.227,33.691,21.973,74.219,0
1528296342.088,8.789,31.738,31.250,25.879,69.824,0
1528296342.091,35.645,34.668,32.715,36.133,20.996,0
1528296342.095,43.457,35.156,34.180,33.203,19.043,0
1528296342.099,16.602,36.133,32.227,29.785,20.020,0
1528296342.103,4.883,41.504,33.203,32.227,53.711,0
1528296342.107,32.227,42.480,32.715,33.203,29.297,0
1528296342.104,44.922,41.992,31.738,35.156,-15.137,0
1528296342.108,23.438,42.480,32.715,33.203,21.973,0
1528296342.112,5.371,39.062,33.691,27.344,14.648,0
1528296342.116,24.902,39.062,35.645,36.621,-13.184,0
1528296342.120,47.363,42.969,35.645,39.062,7.324,0
1528296342.124,26.855,43.457,39.062,24.414,45.410,0
1528296342.128,7.812,39.551,39.062,23.438,45.898,0
1528296342.131,20.508,41.504,32.715,34.180,-0.977,0
1528296342.135,33.203,44.922,34.180,34.668,-2.930,0
1528296342.139,28.809,41.992,29.785,30.273,4.395,0
1528296342.143,16.602,41.992,26.855,33.203,-2.441,0
1528296342.147,17.578,44.434,34.668,32.715,19.531,0
1528296342.164,38.574,44.434,39.551,36.621,30.273,0
1528296342.168,40.527,43.457,38.574,36.621,44.434,0
1528296342.172,17.090,45.898,34.668,29.297,30.273,0
1528296342.176,7.324,43.457,33.203,29.297,7.812,0
1528296342.180,26.855,41.016,29.785,34.668,23.926,0
1528296342.184,40.039,41.504,27.832,38.086,41.016,0
1528296342.188,13.184,41.504,27.344,30.273,13.672,0
1528296342.191,-1.465,41.992,28.320,23.438,-6.836,0
1528296342.195,25.391,42.480,31.250,32.715,16.113,0
1528296342.199,44.922,41.992,32.715,41.016,-5.371,0
1528296342.203,34.668,42.969,29.785,33.691,-2.441,0
1528296342.207,10.742,42.480,30.762,26.367,61.035,0
1528296342.205,13.672,39.062,29.785,36.621,44.922,0
1528296342.209,39.062,38.574,27.344,43.457,23.926,0
1528296342.213,44.922,39.062,32.715,31.738,46.387,0
1528296342.217,21.973,39.062,35.156,25.391,42.969,0
1528296342.221,8.789,35.156,32.227,20.508,59.082,0
1528296342.225,29.785,33.203,30.762,24.902,62.500,0
1528296342.229,41.992,35.645,37.109,34.180,45.898,0
1528296342.232,18.555,35.645,37.598,26.367,38.574,0
1528296342.236,7.324,35.645,32.715,20.996,27.832,0
1528296342.240,24.902,37.109,31.250,30.762,63.477,0
1528296342.244,38.574,40.527,33.203,32.227,46.875,0
1528296342.248,20.508,39.551,32.715,16.602,15.137,0
1528296342.245,8.301,37.109,28.320,13.672,61.035,0
1528296342.249,23.438,39.062,25.879,23.926,32.715,0
1528296342.253,34.180,38.574,27.832,27.344,51.270,0
1528296342.257,21.484,38.574,27.344,26.367,64.941,0
1528296342.261,4.883,38.574,24.902,23.926,37.598,0
1528296342.265,9.766,38.086,24.414,25.879,48.828,0
1528296342.269,38.574,38.086,26.367,33.691,30.273,0
1528296342.272,38.574,34.668,25.879,30.273,33.691,0
1528296342.276,6.348,33.203,25.879,17.578,24.414,0
1528296342.280,11.230,32.715,27.344,18.555,6.836,0
1528296342.284,33.203,30.273,26.367,24.414,34.668,0
1528296342.288,42.480,34.668,27.344,24.902,21.484,0
1528296342.325,20.996,39.062,27.832,25.879,22.949,0
1528296342.329,5.371,35.645,31.738,21.973,39.551,0
1528296342.333,18.555,32.715,25.879,23.926,30.762,0
1528296342.337,34.668,32.227,20.020,26.367,79.102,0
1528296342.341,22.461,32.227,31.738,20.508,74.219,0
1528296342.345,5.859,33.691,36.621,19.531,54.688,0
1528296342.349,14.648,34.180,36.133,20.020,32.227,0
1528296342.352,41.504,36.133,37.109,27.344,35.645,0
1528296342.356,40.039,36.621,37.109,30.273,47.852,0
1528296342.360,13.672,36.133,37.598,22.949,-22.461,0
1528296342.364,17.578,36.133,33.203,26.855,0.977,0
1528296342.368,39.551,35.156,32.227,39.062,43.457,0
1528296342.345,42.969,36.133,32.227,38.086,25.391,0
1528296342.349,19.043,36.621,32.715,27.344,58.594,0
1528296342.353,7.812,34.668,33.203,26.855,33.691,0
1528296342.357,30.273,33.203,28.320,36.621,-2.930,0
1528296342.361,43.457,33.691,28.320,43.945,8.301,0
1528296342.365,21.973,36.133,32.715,39.062,-7.324,0
1528296342.369,7.324,36.621,28.320,37.598,4.395,0
1528296342.372,23.926,37.598,28.320,44.922,50.293,0
1528296342.376,46.387,38.574,29.785,44.434,58.105,0
1528296342.380,31.250,39.551,22.461,34.668,52.734,0
1528296342.384,15.137,42.480,26.855,33.691,35.156,0
1528296342.388,26.855,41.016,29.785,35.645,11.719,0
1528296342.385,44.434,40.527,27.832,34.180,6.348,0
1528296342.389,40.527,41.504,28.809,32.715,47.852,0
1528296342.393,7.812,40.527,29.785,28.809,27.832,0
1528296342.397,-0.488,38.574,29.297,25.391,-13.672,0
1528296342.401,29.297,37.109,25.391,32.227,22.949,0
1528296342.405,28.809,37.598,25.879,32.715,5.859,0
1528296342.409,10.254,39.551,25.879,24.902,13.672,0
1528296342.412,9.766,39.062,27.344,24.414,16.113,0
1528296342.416,22.949,39.551,27.344,33.691,-13.672,0
1528296342.420,34.668,40.527,26.855,34.180,41.016,0
1528296342.424,13.672,39.551,34.668,25.879,38.574,0
1528296342.428,-1.953,38.086,34.180,27.832,40.039,0
1528296342.444,8.301,38.086,26.367,32.227,70.312,0
1528296342.448,31.250,41.504,26.855,36.133,109.863,0
1528296342.452,28.809,40.039,28.809,33.203,54.199,0
1528296342.456,5.859,33.691,29.297,23.438,17.578,0
1528296342.460,8.301,33.691,27.832,23.438,60.059,0
1528296342.464,26.367,35.645,25.879,34.180,102.051,0
1528296342.468,22.461,36.621,23.438,34.668,78.125,0
1528296342.471,11.719,35.156,22.461,24.902,43.945,0
1528296342.475,21.484,37.109,23.926,21.973,44.922,0
1528296342.479,46.387,41.504,20.508,35.645,35.156,0
1528296342.483,50.293,40.039,23.438,39.062,0.000,0
1528296342.487,26.855,38.574,31.738,27.344,-19.531,0
1528296342.485,20.020,38.086,32.715,26.855,-7.324,0
1528296342.489,40.039,37.109,31.250,32.715,-14.160,0
1528296342.493,62.988,37.598,33.203,32.715,45.410,0
1528296342.497,42.969,36.621,34.180,25.391,61.035,0
1528296342.501,12.207,34.180,31.250,21.973,-0.977,0
1528296342.505,19.043,35.645,30.273,27.832,3.418,0
1528296342.509,37.598,35.156,28.809,28.320,5.371,0
1528296342.512,34.180,33.691,27.832,23.926,19.531,0
1528296342.516,13.184,34.180,28.320,20.996,18.066,0
1528296342.520,5.371,34.668,29.785,27.832,-6.836,0
1528296342.524,30.273,32.715,30.762,38.574,24.414,0
1528296342.528,35.645,32.715,31.250,42.480,42.480,0
1528296342.524,13.672,35.645,33.203,37.598,66.406,0
1528296342.528,12.207,36.621,32.715,35.156,83.984,0
1528296342.532,30.273,36.133,33.203,43.457,83.984,0
1528296342.536,41.992,37.109,35.645,42.969,67.871,0
1528296342.540,22.461,36.133,32.715,29.785,31.738,0
1528296342.544,2.441,33.691,30.273,28.809,40.527,0
1528296342.548,23.438,32.715,28.320,32.715,44.922,0
1528296342.551,37.598,32.715,27.832,36.133,-25.879,0
1528296342.555,20.020,34.668,26.367,29.297,-24.414,0
1528296342.559,8.789,35.156,21.484,22.949,-29.785,0
1528296342.563,18.066,33.691,25.391,20.020,8.789,0
1528296342.567,43.945,34.180,30.762,22.461,79.590,0
1528296342.584,37.109,35.156,31.738,22.461,47.363,0
1528296342.588,9.766,36.621,31.738,11.719,-8.301,0
1528296342.592,19.043,39.062,33.203,13.672,-31.250,0
1528296342.596,43.457,38.574,31.250,24.414,64.941,0
1528296342.600,38.086,38.574,25.879,19.531,67.383,0
1528296342.604,10.742,39.551,26.855,14.648,-10.742,0
1528296342.608,3.418,37.598,30.273,16.113,26.855,0
1528296342.611,29.297,34.668,27.832,18.555,34.180,0
1528296342.615,47.852,37.598,24.902,23.926,17.578,0
1528296342.619,20.020,41.504,26.855,21.484,5.371,0
1528296342.623,-0.977,41.016,31.250,22.949,-4.395,0
1528296342.627,20.020,36.621,33.691,35.156,21.973,0
1528296342.625,42.969,31.738,34.668,38.574,38.086,0
1528296342.629,30.762,32.227,34.180,28.809,64.941,0
1528296342.633,12.695,35.156,32.715,24.902,34.180,0
1528296342.637,25.879,39.062,31.250,28.809,-0.977,0
1528296342.641,42.480,39.551,29.785,31.250,49.316,0
1528296342.645,31.250,37.598,25.879,25.391,20.020,0
1528296342.649,7.812,34.180,21.484,18.066,7.812,0
1528296342.652,8.301,31.738,24.414,23.438,80.566,0
1528296342.656,37.598,33.691,33.203,37.598,98.145,0
1528296342.660,41.504,36.133,36.133,34.668,58.594,0
1528296342.664,17.090,34.180,30.762,19.043,-39.551,0
1528296342.668,11.230,32.227,27.832,23.438,-27.344,0
1528296342.665,24.902,30.273,28.320,29.785,28.320,0
1528296342.669,40.039,29.297,27.344,25.879,21.484,0
1528296342.673,20.508,30.762,23.926,25.391,7.324,0
1528296342.677,5.371,34.668,23.438,23.438,15.137,0
1528296342.681,24.902,33.203,26.367,18.066,36.621,0
1528296342.685,47.363,35.645,32.227,21.484,51.270,0
1528296342.689,36.621,38.086,27.832,22.461,29.297,0
1528296342.692,13.672,37.109,24.902,16.602,39.062,0
1528296342.696,20.508,38.574,32.715,21.973,28.809,0
1528296342.700,49.805,38.574,33.691,33.691,53.711,0
1528296342.704,48.828,38.574,28.320,34.668,65.430,0
1528296342.708,13.672,36.133,25.879,32.227,30.762,0
1528296342.724,-1.953,35.645,28.809,36.621,10.742,0
1528296342.728,24.414,42.480,30.273,42.480,-13.184,0
1528296342.732,48.340,53.711,26.855,40.039,-0.488,0
1528296342.736,33.203,50.781,27.832,36.621,49.316,0
1528296342.740,7.324,41.992,33.691,35.645,37.598,0
1528296342.744,12.695,41.504,39.062,40.039,-2.441,0
1528296342.748,19.531,41.016,41.016,26.367,5.859,0
1528296342.751,-6.348,34.668,36.621,-0.488,25.391,0
1528296342.755,-29.785,35.645,42.480,-2.441,-14.648,0
1528296342.759,-24.414,31.250,50.293,-0.977,-45.410,0
1528296342.763,-12.207,18.066,57.617,0.488,-2.930,0
1528296342.767,-27.832,10.254,68.359,-19.043,28.320,0
1528296342.764,-65.918,13.184,66.406,-45.898,-11.230,0
1528296342.768,-66.895,17.578,71.777,-49.805,-17.090,0
1528296342.772,-35.645,18.066,74.707,-54.688,53.711,0
1528296342.776,-56.152,15.625,77.637,-58.105,45.410,0
1528296342.780,-94.727,11.719,86.426,-56.152,0.977,0
1528296342.784,-96.680,10.254,82.520,-57.129,16.602,0
1528296342.788,-74.219,10.254,79.102,-54.199,-4.883,0
1528296342.791,-50.781,2.441,82.520,-47.852,-29.785,0
1528296342.795,-70.312,-1.465,84.961,-47.363,-28.320,0
1528296342.799,-102.051,-1.953,87.891,-39.551,2.930,0
1528296342.803,-67.871,1.465,88.867,-21.484,12.695,0
1528296342.807,-26.367,-3.418,88.379,-1.953,12.695,0
1528296342.804,-34.180,-16.113,86.914,3.906,41.504,0
1528296342.808,-44.922,-17.090,83.984,6.836,27.832,0
1528296342.812,-22.461,-20.508,83.496,26.855,-15.137,0
1528296342.816,16.113,-26.367,74.707,52.246,-0.977,0
1528296342.820,22.461,-15.625,65.918,48.828,35.156,0
1528296342.824,6.836,-4.883,69.336,44.434,11.719,0
1528296342.828,16.113,-4.395,73.730,56.152,35.645,0
1528296342.831,35.645,-9.277,74.219,65.918,53.711,0
1528296342.835,47.363,-6.348,74.707,74.219,28.809,0
1528296342.839,42.969,6.836,75.195,85.938,10.254,0
1528296342.843,38.086,11.230,77.637,80.078,4.395,0
1528296342.847,73.242,9.766,65.918,78.125,34.180,0
1528296342.865,87.402,10.742,55.176,85.449,46.387,0
1528296342.869,62.500,14.160,53.711,76.660,6.348,0
1528296342.873,56.641,12.695,56.641,81.055,20.020,0
1528296342.877,69.824,12.695,54.199,90.820,7.324,0
1528296342.881,88.379,13.184,52.734,97.168,-17.578,0
1528296342.885,80.566,8.789,59.570,95.215,41.504,0
1528296342.889,67.383,9.766,52.734,82.520,56.152,0
1528296342.892,79.102,16.602,49.805,85.938,11.230,0
1528296342.896,96.191,18.066,56.152,98.633,-15.625,0
1528296342.900,87.402,18.066,55.664,95.703,23.438,0
1528296342.904,57.617,21.973,57.617,80.566,42.480,0
1528296342.908,59.570,25.879,51.758,74.707,63.965,0
1528296342.903,88.379,30.762,43.457,83.496,54.199,0
1528296342.907,92.285,35.645,43.457,93.262,27.344,0
1528296342.911,68.359,30.762,40.527,83.008,60.547,0
1528296342.915,55.176,32.715,40.527,67.383,50.781,0
1528296342.919,68.359,37.109,36.621,73.730,57.617,0
1528296342.923,78.613,32.227,37.109,78.125,102.051,0
1528296342.927,63.965,20.508,37.109,70.801,86.426,0
1528296342.930,54.199,19.043,31.738,64.941,65.430,0
1528296342.934,60.547,35.645,36.133,73.242,91.309,0
1528296342.938,67.871,45.410,44.922,72.754,50.781,0
1528296342.942,67.871,48.340,45.898,59.082,43.457,0
1528296342.946,58.105,41.504,36.133,63.477,61.523,0
1528296342.944,70.801,35.156,25.879,70.312,30.273,0
1528296342.948,87.891,41.504,29.785,77.148,49.805,0
1528296342.952,86.914,44.922,35.645,73.242,20.508,0
1528296342.956,75.195,48.340,31.738,60.059,-10.742,0
1528296342.960,68.848,53.711,30.273,64.453,-4.883,0
1528296342.964,86.426,57.129,31.738,72.754,5.859,0
1528296342.968,96.191,59.082,32.715,71.289,37.598,0
1528296342.971,77.637,56.152,32.715,69.336,27.344,0
1528296342.975,74.707,54.199,31.250,61.035,23.926,0
1528296342.979,87.891,51.270,26.367,58.594,27.344,0
1528296342.983,88.867,51.270,28.809,63.477,62.500,0
1528296342.987,76.172,53.711,33.203,61.035,78.125,0
1528296343.005,55.664,54.688,34.668,54.688,69.336,0
1528296343.009,65.918,50.781,33.691,55.176,50.781,0
1528296343.013,88.867,46.387,30.273,65.918,65.918,0
1528296343.017,80.566,48.828,36.133,55.176,21.484,0
1528296343.021,48.828,53.711,28.809,46.387,-18.555,0
1528296343.025,39.062,55.664,18.066,45.898,22.949,0
1528296343.029,64.453,54.688,26.367,49.316,0.000,0
1528296343.032,69.336,50.781,31.738,45.898,-42.480,0
1528296343.036,51.758,47.852,34.668,38.574,-47.852,0
1528296343.040,38.086,45.410,32.227,46.875,43.457,0
1528296343.044,39.062,43.457,30.273,50.781,115.234,0
1528296343.048,50.293,45.898,37.109,39.062,80.078,0
1528296343.045,42.480,43.457,31.738,28.809,82.520,0
1528296343.049,30.273,40.527,27.344,26.855,40.039,0
1528296343.053,46.387,45.898,29.297,42.969,-6.348,0
1528296343.057,66.406,47.363,31.250,54.688,-1.465,0
1528296343.061,52.734,45.410,31.250,36.621,12.207,0
1528296343.065,31.738,44.434,23.926,28.809,21.484,0
1528296343.069,42.480,46.387,16.113,37.598,18.066,0
1528296343.072,69.824,46.875,20.996,42.480,19.043,0
1528296343.076,63.965,44.434,26.367,38.086,53.223,0
1528296343.080,34.180,46.875,28.809,29.297,59.570,0
1528296343.084,33.203,47.852,30.762,31.738,29.297,0
1528296343.088,55.664,45.410,29.297,41.016,26.367,0
1528296343.084,64.941,42.969,31.250,42.969,72.266,0
1528296343.088,36.621,43.945,30.273,37.109,70.801,0
1528296343.092,24.414,44.434,22.461,35.645,60.547,0
1528296343.096,45.410,41.992,26.367,39.551,41.504,0
1528296343.100,59.082,41.016,26.367,37.109,23.438,0
1528296343.104,41.016,41.504,24.414,34.668,50.781,0
1528296343.108,20.020,46.387,30.762,39.551,91.797,0
1528296343.111,29.785,45.898,28.809,40.039,67.871,0
1528296343.115,53.223,45.898,19.531,41.992,37.109,0
1528296343.119,48.828,45.410,21.484,38.086,21.484,0
1528296343.123,27.832,45.898,29.785,31.250,-17.578,0
1528296343.127,35.156,46.387,30.273,41.016,45.410,0
1528296343.144,53.711,44.922,32.715,53.223,118.164,0
1528296343.148,49.316,49.805,28.809,41.504,60.059,0
1528296343.152,26.367,47.852,21.484,33.203,-13.672,0
1528296343.156,21.973,40.039,24.414,36.621,-8.301,0
1528296343.160,47.852,41.504,29.785,41.016,10.254,0
1528296343.164,54.199,44.434,31.738,41.992,-26.367,0
1528296343.168,31.250,51.270,31.250,35.156,6.836,0
1528296343.171,26.367,53.223,32.715,28.809,73.730,0
1528296343.175,45.898,49.805,32.715,33.203,44.922,0
1528296343.179,58.594,44.434,30.762,41.016,38.086,0
1528296343.183,33.691,34.668,32.715,36.621,54.688,0
1528296343.187,30.762,39.062,30.273,26.855,26.855,0
1528296343.205,50.293,47.852,30.273,30.273,4.883,0
1528296343.209,55.176,50.293,31.738,39.551,14.160,0
1528296343.213,43.457,48.828,23.926,37.109,36.621,0
1528296343.217,21.484,49.805,28.809,30.762,10.742,0
1528296343.221,26.855,45.898,34.668,36.133,-14.160,0
1528296343.225,51.758,42.480,34.180,48.828,36.133,0
1528296343.229,54.199,44.922,37.109,53.223,-15.137,0
1528296343.232,33.203,41.992,35.156,40.527,-41.016,0
1528296343.236,26.855,41.992,33.691,30.762,56.641,0
1528296343.240,47.363,40.039,31.738,34.668,26.855,0
1528296343.244,56.641,40.039,30.273,33.691,8.301,0
1528296343.248,34.180,43.945,32.227,29.785,65.430,0
1528296343.245,26.367,42.480,31.250,42.480,71.289,0
1528296343.249,40.527,40.527,32.227,50.781,21.973,0
1528296343.253,54.688,40.039,37.598,44.434,26.855,0
1528296343.257,49.316,36.133,30.273,34.668,-1.953,0
1528296343.261,41.016,36.621,24.902,25.391,-14.160,0
1528296343.265,41.992,45.410,25.879,33.691,39.062,0
1528296343.269,41.992,45.410,28.809,32.227,60.547,0
1528296343.272,41.504,41.504,31.250,22.949,27.344,0
1528296343.276,32.715,39.062,32.715,17.578,13.184,0
1528296343.280,28.320,36.133,29.297,25.391,15.137,0
1528296343.284,46.875,35.156,29.785,31.250,-10.742,0
1528296343.288,45.410,36.133,32.715,26.367,-24.414,0
1528296343.285,14.160,40.527,32.227,26.855,2.930,0
1528296343.289,13.672,42.969,32.715,26.855,31.738,0
1528296343.293,45.410,41.992,31.738,31.250,24.414,0
1528296343.297,54.688,43.457,36.133,31.738,7.324,0
1528296343.301,31.250,43.945,37.598,27.344,-1.465,0
1528296343.305,18.555,41.016,39.551,21.484,3.906,0
1528296343.309,32.715,39.062,33.691,21.484,48.340,0
1528296343.312,48.828,40.039,26.855,37.598,68.848,0
1528296343.316,51.270,36.621,41.504,41.016,55.664,0
1528296343.320,30.273,23.438,38.574,28.809,60.547,0
1528296343.324,10.742,33.691,21.484,20.020,0.977,0
1528296343.328,34.668,44.922,19.531,23.926,33.691,0
1528296343.325,44.922,41.504,22.461,25.391,65.918,0
1528296343.329,20.020,45.898,26.367,17.090,74.219,0
1528296343.333,19.531,45.898,28.809,23.438,60.547,0
1528296343.337,44.434,41.504,27.832,36.621,36.621,0
1528296343.341,50.293,44.922,26.367,42.480,57.129,0
1528296343.345,28.320,46.875,24.902,27.344,65.430,0
1528296343.349,22.461,45.410,24.902,18.066,18.066,0
1528296343.352,45.410,46.387,24.414,33.691,11.230,0
1528296343.356,55.176,46.387,29.297,37.109,46.875,0
1528296343.360,34.180,43.457,28.809,23.438,31.250,0
1528296343.364,26.855,40.039,15.137,22.949,24.902,0
1528296343.368,45.898,38.574,15.625,31.250,42.480,0
1528296343.385,55.176,38.574,22.949,31.738,107.910,0
1528296343.389,30.762,34.668,31.738,32.227,104.980,0
1528296343.393,20.996,33.691,29.297,33.203,-11.719,0
1528296343.397,32.227,36.133,21.484,26.855,-49.805,0
1528296343.401,41.992,41.504,24.902,37.109,-21.973,0
1528296343.405,37.109,42.969,27.344,41.016,-5.859,0
1528296343.409,10.254,36.621,30.762,31.738,-9.766,0
1528296343.412,11.719,37.598,37.598,32.227,-23.926,0
1528296343.416,41.992,41.016,32.715,36.621,-8.301,0
1528296343.420,52.246,37.598,15.137,41.016,10.742,0
1528296343.424,38.574,35.645,7.324,30.273,38.086,0
1528296343.428,17.578,28.809,16.113,24.902,31.250,0
1528296343.425,27.832,37.109,23.438,28.320,-6.836,0
1528296343.429,48.340,36.621,29.297,33.203,31.738,0
1528296343.433,38.086,25.879,40.527,31.250,87.891,0
1528296343.437,26.855,41.016,39.062,28.320,53.711,0
1528296343.441,35.156,52.734,24.902,41.504,54.199,0
1528296343.445,42.480,59.570,20.996,44.922,41.016,0
1528296343.449,33.691,61.035,21.484,40.527,-5.371,0
1528296343.452,29.297,56.152,25.879,39.551,17.090,0
1528296343.456,40.039,50.293,38.574,38.086,33.203,0
1528296343.460,48.828,42.969,30.762,43.457,75.684,0
1528296343.464,36.621,41.504,15.137,43.945,48.340,0
1528296343.468,29.297,43.457,32.715,27.832,31.738,0
1528296343.464,30.762,44.922,43.457,19.043,29.297,0
1528296343.468,44.922,44.922,40.527,31.250,36.133,0
1528296343.472,55.664,43.945,38.086,44.434,64.941,0
1528296343.476,42.480,45.898,30.762,26.855,16.602,0
1528296343.480,31.738,43.945,28.320,26.855,9.277,0
1528296343.484,38.574,39.062,27.344,39.551,31.738,0
1528296343.488,51.758,36.133,25.391,40.039,2.441,0
1528296343.491,41.016,33.691,27.832,31.738,-8.301,0
1528296343.495,21.484,41.992,24.902,18.066,-10.742,0
1528296343.499,37.109,44.922,19.531,27.832,13.184,0
1528296343.503,63.477,40.039,26.855,41.504,6.348,0
1528296343.507,46.387,40.527,28.320,36.621,0.000,0
1528296343.524,29.297,47.852,30.273,40.039,50.781,0
1528296343.528,37.598,48.828,37.598,40.039,35.645,0
1528296343.532,55.664,38.086,29.297,44.922,40.527,0
1528296343.536,49.316,32.227,26.367,46.875,105.469,0
1528296343.540,32.227,37.598,24.902,35.156,91.797,0
1528296343.544,37.598,41.992,22.949,35.156,17.090,0
1528296343.548,42.480,40.527,18.555,41.992,68.359,0
1528296343.551,45.410,41.504,20.020,44.434,85.938,0
1528296343.555,41.992,42.480,31.250,41.504,19.531,0
1528296343.559,35.156,41.016,33.691,34.180,25.391,0
1528296343.563,44.922,36.621,27.832,37.109,41.504,0
1528296343.567,56.152,36.621,25.879,42.480,-2.930,0
1528296343.563,48.340,39.062,28.320,30.273,-44.922,0
1528296343.567,37.598,42.969,27.344,25.879,-14.160,0
1528296343.571,35.645,39.551,26.367,25.391,-4.883,0
1528296343.575,48.828,40.527,24.414,34.180,-29.297,0
1528296343.579,51.270,44.434,21.484,35.645,-7.812,0
1528296343.583,26.855,39.062,17.090,36.133,55.176,0
1528296343.587,29.785,40.527,19.531,48.828,31.250,0
1528296343.590,55.176,47.363,27.832,58.105,78.125,0
1528296343.594,56.641,43.457,28.320,62.500,99.121,0
1528296343.598,32.227,32.715,26.367,50.781,9.766,0
1528296343.602,20.508,39.062,20.996,40.527,8.789,0
1528296343.606,38.574,48.340,19.043,46.387,60.547,0
1528296343.605,50.781,50.781,21.484,48.340,97.168,0
1528296343.609,32.715,50.293,20.996,39.062,52.246,0
1528296343.613,19.043,48.828,22.949,32.715,-17.578,0
1528296343.617,37.109,48.828,25.879,41.016,-4.395,0
1528296343.621,49.316,47.363,27.344,49.805,48.340,0
1528296343.625,33.691,43.945,27.344,36.133,33.691,0
1528296343.629,27.832,37.598,19.531,21.484,-5.859,0
1528296343.632,36.133,37.109,20.020,19.043,-27.344,0
1528296343.636,39.551,41.504,19.531,26.855,-23.926,0
1528296343.640,40.039,43.457,14.160,28.809,28.320,0
1528296343.644,30.762,42.480,20.020,20.020,54.199,0
1528296343.648,28.320,41.504,22.461,20.508,7.324,0
1528296343.665,38.574,40.527,22.949,30.273,-7.324,0
1528296343.669,36.133,37.598,24.414,33.691,23.438,0
1528296343.673,26.367,40.527,26.367,25.391,46.875,0
1528296343.677,17.578,42.969,29.785,24.414,32.715,0
1528296343.681,27.344,40.527,30.762,42.480,17.090,0
1528296343.685,39.062,40.527,31.250,47.852,15.625,0
1528296343.689,25.391,42.480,31.250,36.621,-10.742,0
1528296343.692,19.043,39.062,29.297,27.344,32.227,0
1528296343.696,36.621,34.668,28.320,35.156,103.027,0
1528296343.700,44.434,37.598,25.391,44.434,44.434,0
1528296343.704,32.227,38.086,26.855,43.945,7.812,0
1528296343.708,15.625,40.039,27.832,39.062,45.898,0
1528296343.705,20.020,46.387,24.902,32.227,59.082,0
1528296343.709,43.945,51.270,29.785,35.156,64.941,0
1528296343.713,40.527,48.340,30.762,33.691,69.336,0
1528296343.717,21.973,42.969,28.809,25.391,23.926,0
1528296343.721,19.043,40.039,24.414,29.785,-22.949,0
1528296343.725,35.156,39.551,23.438,41.504,0.000,0
1528296343.729,43.457,33.691,28.809,37.109,35.156,0
1528296343.732,20.996,32.715,32.715,26.367,18.066,0
1528296343.736,19.531,33.691,31.250,27.832,-7.812,0
1528296343.740,37.598,26.855,26.855,28.320,25.879,0
1528296343.744,28.320,29.785,25.879,23.438,20.996,0
1528296343.748,9.277,36.133,24.902,19.531,-7.324,0
1528296343.745,2.930,36.621,21.973,18.555,59.570,0
1528296343.749,13.184,38.574,22.949,20.508,9.277,0
1528296343.753,24.902,37.598,33.691,24.414,-39.551,0
1528296343.757,18.555,37.109,36.133,24.414,11.230,0
1528296343.761,6.348,38.574,32.227,21.484,34.668,0
1528296343.765,12.207,40.039,32.227,17.578,14.648,0
1528296343.769,33.203,41.016,31.738,28.809,36.133,0
1528296343.772,40.039,40.039,26.855,33.691,75.684,0
1528296343.776,23.438,39.551,22.461,19.531,60.059,0
1528296343.780,29.785,41.016,27.344,20.020,77.148,0
1528296343.784,47.852,40.039,30.762,30.762,79.102,0
1528296343.788,53.711,37.109,31.738,31.738,27.832,0
1528296343.805,41.504,40.039,26.367,28.320,10.254,0
1528296343.809,25.879,41.016,21.973,28.809,28.320,0
1528296343.813,32.227,37.109,26.367,34.668,54.199,0
1528296343.817,44.922,37.109,27.832,39.551,33.203,0
1528296343.821,35.156,40.527,30.273,29.785,10.254,0
1528296343.825,19.043,41.504,33.691,23.438,-31.250,0
1528296343.829,27.344,40.039,32.715,29.785,3.418,0
1528296343.832,49.805,39.551,30.762,38.086,65.918,0
1528296343.836,45.410,39.062,28.809,42.969,23.438,0
1528296343.840,14.648,39.551,28.809,38.574,55.176,0
1528296343.844,17.090,41.016,29.297,36.133,85.938,0
1528296343.848,34.668,39.551,34.180,46.875,54.688,0
1528296343.848,33.691,41.016,40.039,43.945,61.035,0
1528296343.852,23.926,42.480,38.574,29.297,39.551,0
1528296343.856,20.020,42.480,36.133,30.273,15.137,0
1528296343.860,42.480,41.016,34.668,36.133,62.012,0
1528296343.864,46.875,38.086,30.762,31.738,28.809,0
1528296343.868,19.043,37.598,34.180,26.855,14.648,0
1528296343.872,11.719,36.621,39.551,23.438,4.883,0
1528296343.875,30.762,34.180,31.738,24.902,34.180,0
1528296343.879,41.504,30.762,29.297,29.785,34.180,0
1528296343.883,28.320,30.273,29.297,25.391,18.555,0
1528296343.887,28.809,34.668,27.344,22.949,47.363,0
1528296343.891,40.527,35.156,33.691,25.879,5.859,0
1528296343.885,54.199,33.203,37.598,33.203,23.926,0
1528296343.889,56.641,36.133,39.062,35.156,46.387,0
1528296343.893,24.902,39.551,40.039,24.902,71.777,0
1528296343.897,3.906,34.180,43.457,23.438,77.148,0
1528296343.901,13.184,27.832,38.574,35.156,71.777,0
1528296343.905,4.883,32.227,33.203,39.062,-16.602,0
1528296343.909,-10.742,34.180,35.156,25.391,-31.738,0
1528296343.912,-11.230,29.785,38.574,21.484,46.875,0
1528296343.916,3.418,31.738,41.016,27.344,3.906,0
1528296343.920,25.879,38.086,42.480,33.691,-17.090,0
1528296343.924,23.438,37.109,42.969,29.297,29.785,0
1528296343.928,6.348,32.715,43.457,15.625,57.129,0
1528296343.946,4.883,35.156,46.875,16.602,37.598,0
1528296343.950,10.254,28.809,50.293,24.414,45.410,0
1528296343.954,5.371,23.438,53.711,27.344,65.918,0
1528296343.958,-0.488,33.691,45.898,20.508,63.477,0
1528296343.962,-4.883,38.086,44.434,1.953,89.844,0
1528296343.966,-8.789,37.598,48.340,-8.789,78.125,0
1528296343.970,-20.508,47.363,50.781,-27.832,19.531,0
1528296343.973,-43.457,49.805,42.969,-66.895,-6.836,0
1528296343.977,-58.105,48.828,33.203,-81.055,6.348,0
1528296343.981,-45.410,60.059,39.551,-66.406,58.594,0
1528296343.985,-46.387,63.477,37.598,-73.730,105.469,0
1528296343.989,-75.684,67.383,24.902,-105.469,57.129,0
1528296343.985,-86.426,74.707,23.926,-111.328,-15.137,0
1528296343.989,-84.961,75.684,25.879,-107.910,-4.883,0
1528296343.993,-83.008,80.566,23.438,-114.746,36.621,0
1528296343.997,-94.727,87.891,21.973,-121.582,28.320,0
1528296344.001,-110.840,91.797,15.137,-134.766,53.223,0
1528296344.005,-101.074,92.285,6.348,-137.695,28.320,0
1528296344.009,-84.473,94.727,1.953,-121.094,12.207,0
1528296344.012,-83.008,98.145,-5.859,-117.188,31.738,0
1528296344.016,-74.707,97.168,-13.672,-116.211,25.391,0
1528296344.020,-69.336,100.586,-21.484,-114.746,36.133,0
1528296344.024,-52.246,100.586,-22.461,-97.168,26.855,0
1528296344.028,-22.949,95.703,-19.043,-67.383,7.324,0
1528296344.024,-26.855,96.680,-20.508,-66.895,16.113,0
1528296344.028,-16.113,94.727,-22.461,-56.152,22.461,0
1528296344.032,23.926,96.191,-20.508,-29.297,71.289,0
1528296344.036,39.551,95.703,-20.996,-20.996,25.879,0
1528296344.040,34.668,87.402,-21.484,-10.254,-22.461,0
1528296344.044,31.738,87.402,-15.625,-5.859,58.105,0
1528296344.048,48.828,82.031,-19.043,0.977,82.520,0
1528296344.051,70.312,70.801,-21.973,20.508,67.871,0
1528296344.055,61.035,67.871,-17.090,21.484,60.059,0
1528296344.059,54.199,65.918,-13.672,25.879,33.203,0
1528296344.063,68.848,57.129,-7.324,32.227,37.598,0
1528296344.067,90.332,56.641,-3.906,35.156,28.320,0
1528296344.085,84.961,60.547,2.441,39.062,21.484,0
1528296344.089,61.035,57.129,13.672,40.527,31.250,0
1528296344.093,57.617,52.734,11.719,39.062,-0.488,0
1528296344.097,79.102,50.293,6.836,46.387,16.602,0
1528296344.101,85.449,50.293,8.789,57.129,78.125,0
1528296344.105,57.129,48.828,9.766,52.734,53.223,0
1528296344.109,43.457,46.387,10.254,54.199,-27.832,0
1528296344.112,75.684,43.457,14.648,64.941,-7.324,0
1528296344.116,90.820,43.457,19.043,67.871,18.066,0
1528296344.120,66.895,45.410,19.531,59.082,13.672,0
1528296344.124,52.734,43.457,20.020,51.270,35.645,0
1528296344.128,60.547,42.480,21.484,58.594,23.438,0
1528296344.124,81.543,41.016,20.020,63.477,18.066,0
1528296344.128,74.219,41.016,19.043,63.477,7.324,0
1528296344.132,52.246,41.992,21.973,61.035,3.906,0
1528296344.136,56.152,40.039,22.461,62.012,50.293,0
1528296344.140,72.754,39.551,24.414,66.895,40.527,0
1528296344.144,70.312,38.574,28.809,61.523,18.555,0
1528296344.148,51.758,36.133,25.391,53.223,33.203,0
1528296344.151,46.387,34.180,24.414,52.734,35.645,0
1528296344.155,66.406,30.273,25.879,59.082,61.523,0
1528296344.159,66.895,32.227,20.996,61.035,33.691,0
1528296344.163,49.805,35.156,24.414,52.734,14.648,0
1528296344.167,53.711,35.156,36.133,49.316,0.000,0
1528296344.166,67.871,36.621,39.062,54.688,44.922,0
1528296344.170,75.195,40.527,38.574,54.199,67.383,0
1528296344.174,50.781,38.086,34.180,44.922,60.547,0
1528296344.178,32.715,34.180,30.762,42.969,53.711,0
1528296344.182,43.457,36.621,33.203,46.387,12.695,0
1528296344.186,61.035,37.109,32.227,54.688,12.695,0
1528296344.190,52.734,36.133,28.809,55.176,37.598,0
1528296344.193,24.414,34.180,28.809,45.410,36.621,0
1528296344.197,26.855,34.668,27.344,44.922,-15.137,0
1528296344.201,55.176,38.574,24.902,52.734,-16.113,0
1528296344.205,54.688,37.109,27.344,48.828,28.809,0
1528296344.209,32.715,37.598,30.762,42.480,-9.277,0
1528296344.225,27.832,40.039,34.180,46.875,-26.855,0
1528296344.229,51.270,38.574,30.762,48.828,-3.906,0
1528296344.233,59.570,39.551,29.297,49.316,24.414,0
1528296344.237,37.109,38.086,31.250,47.363,25.391,0
1528296344.241,20.508,35.645,32.227,46.387,54.688,0
1528296344.245,24.414,33.691,37.109,47.852,62.988,0
1528296344.249,43.457,33.203,36.621,48.828,31.250,0
1528296344.252,46.387,34.668,33.203,46.387,20.508,0
1528296344.256,26.367,33.691,33.691,41.504,-15.137,0
1528296344.260,32.715,29.297,31.738,44.434,-1.465,0
1528296344.264,53.711,31.250,32.715,54.688,10.254,0
1528296344.268,44.922,36.133,36.621,55.176,18.555,0
1528296344.265,25.391,32.227,33.203,49.805,12.695,0
1528296344.269,30.762,30.762,34.668,54.688,-17.090,0
1528296344.273,57.129,32.715,35.156,59.570,38.574,0
1528296344.277,53.223,31.738,28.809,54.688,59.570,0
1528296344.281,31.250,30.273,30.762,43.945,47.852,0
1528296344.285,21.973,30.273,36.133,43.945,83.984,0
1528296344.289,36.621,29.785,37.109,54.199,58.594,0
1528296344.292,55.664,31.738,35.156,51.758,58.105,0
1528296344.296,45.898,33.691,39.551,42.480,64.941,0
1528296344.300,16.602,35.156,39.551,36.621,12.695,0
1528296344.304,25.391,34.668,32.227,41.992,-21.973,0
1528296344.308,59.570,33.203,35.156,59.570,17.090,0
1528296344.305,51.758,38.574,34.180,52.246,43.945,0
1528296344.309,19.531,46.875,30.762,28.809,41.504,0
1528296344.313,19.043,45.410,33.203,30.273,-12.207,0
1528296344.317,43.457,39.551,32.227,41.992,14.160,0
1528296344.321,41.504,41.504,32.227,42.969,92.773,0
1528296344.325,18.066,45.410,31.738,37.109,49.316,0
1528296344.329,14.160,44.434,31.738,38.086,-0.488,0
1528296344.332,31.250,41.016,30.273,38.574,32.715,0
1528296344.336,41.504,40.527,29.785,33.691,24.414,0
1528296344.340,29.785,41.992,31.738,31.738,-17.090,0
1528296344.344,21.484,42.480,31.250,31.738,52.246,0
1528296344.348,31.738,40.039,30.762,32.227,76.172,0
1528296344.365,38.574,39.062,30.762,34.180,28.809,0
1528296344.369,29.785,41.992,31.250,31.738,12.207,0
1528296344.373,22.461,42.480,34.180,31.738,30.762,0
1528296344.377,34.180,43.457,33.691,38.086,83.496,0
1528296344.381,49.805,43.457,30.273,43.945,64.941,0
1528296344.385,34.668,42.969,30.273,37.109,53.711,0
1528296344.389,12.695,41.992,30.273,24.414,45.410,0
1528296344.392,22.949,41.016,28.320,27.832,37.598,0
1528296344.396,43.945,43.945,32.227,34.180,48.340,0
1528296344.400,46.875,41.992,35.645,31.738,33.203,0
1528296344.404,19.531,38.086,35.156,25.879,11.719,0
1528296344.408,10.254,39.551,36.621,28.809,17.578,0
1528296344.405,32.715,38.574,33.203,37.109,46.387,0
1528296344.409,46.387,36.621,31.250,33.691,-13.184,0
1528296344.413,28.809,37.598,28.320,26.367,-19.043,0
1528296344.417,6.348,40.039,23.926,27.344,33.691,0
1528296344.421,20.996,41.016,30.762,35.645,-5.371,0
1528296344.425,33.203,40.039,38.574,41.016,-27.344,0
1528296344.429,19.531,38.086,36.133,35.645,2.930,0
1528296344.432,8.301,39.551,31.250,28.320,26.855,0
1528296344.436,16.602,43.457,28.320,32.715,16.113,0
1528296344.440,33.691,41.992,30.762,34.180,57.617,0
1528296344.444,31.250,40.527,32.227,29.785,75.195,0
1528296344.448,8.789,39.062,27.344,25.879,34.668,0
1528296344.445,10.254,39.551,24.902,22.461,17.090,0
1528296344.449,34.180,37.598,26.367,27.832,-5.859,0
1528296344.453,36.133,37.109,26.367,35.645,48.340,0
1528296344.457,21.484,38.086,28.320,34.668,21.484,0
1528296344.461,16.113,40.039,35.156,35.645,-6.836,0
1528296344.465,31.250,38.574,36.621,41.504,25.391,0
1528296344.469,43.945,38.574,33.203,41.016,16.113,0
1528296344.472,17.578,38.086,32.715,31.738,-0.488,0
1528296344.476,4.883,37.598,33.203,26.367,3.418,0
1528296344.480,29.785,38.574,34.668,30.273,25.879,0
1528296344.484,43.457,39.062,34.668,35.156,9.766,0
1528296344.488,32.227,41.016,33.691,36.133,18.555,0
1528296344.504,17.578,38.574,35.156,32.227,25.391,0
1528296344.508,23.926,38.086,34.668,34.668,25.391,0
1528296344.512,44.922,40.527,33.203,39.551,60.059,0
1528296344.516,43.457,41.016,30.762,32.715,62.500,0
1528296344.520,14.648,39.062,29.297,24.414,41.016,0
1528296344.524,2.441,39.551,31.250,22.949,33.203,0
1528296344.528,28.809,40.527,32.227,27.344,81.055,0
1528296344.531,37.598,39.062,29.297,29.785,73.730,0
1528296344.535,15.137,37.109,29.785,23.438,10.742,0
1528296344.539,12.207,34.180,32.227,22.949,10.254,0
1528296344.543,25.391,34.180,32.715,29.297,23.926,0
1528296344.547,36.621,37.598,31.738,28.809,34.180,0
1528296344.563,24.902,39.551,29.297,25.391,45.410,0
1528296344.567,5.859,39.551,35.156,26.855,38.574,0
1528296344.571,13.184,40.527,38.086,33.203,11.719,0
1528296344.575,32.715,40.527,31.738,42.969,-0.488,0
1528296344.579,22.461,40.039,32.227,42.480,10.254,0
1528296344.583,4.395,40.039,34.180,35.645,29.785,0
1528296344.587,14.648,40.039,34.668,37.598,33.691,0
1528296344.590,47.852,41.992,38.574,46.387,40.527,0
1528296344.594,42.969,41.504,38.086,42.480,73.242,0
1528296344.598,9.766,40.527,34.668,31.738,38.086,0
1528296344.602,16.113,40.527,33.691,29.785,49.805,0
1528296344.606,46.387,41.016,34.180,34.668,61.523,0
1528296344.588,49.316,40.527,32.715,37.598,-19.531,0
1528296344.592,21.484,41.016,32.715,32.715,-32.715,0
1528296344.596,6.836,40.039,34.180,28.809,-57.617,0
1528296344.600,27.344,37.109,33.203,30.762,-48.828,0
1528296344.604,36.133,35.645,34.180,35.156,-18.555,0
1528296344.608,16.602,34.668,32.227,29.785,3.418,0
1528296344.612,1.953,35.645,31.250,23.438,27.344,0
1528296344.615,18.555,38.574,34.180,28.320,38.086,0
1528296344.619,45.898,38.086,35.156,32.227,69.336,0
1528296344.623,35.645,36.621,35.645,30.273,55.664,0
1528296344.627,12.207,38.086,34.668,26.367,24.414,0
1528296344.631,14.648,36.133,33.691,29.785,61.523,0
1528296344.645,36.621,36.621,33.203,39.062,67.383,0
1528296344.649,40.039,39.551,31.738,35.156,56.152,0
1528296344.653,16.113,40.527,29.785,27.832,64.453,0
