timestamps,TP9,AF7,AF8,TP10,Right AUX,Marker0
60069.666,26.855,60.059,26.855,39.062,19.043,0
60069.670,-0.977,68.359,35.645,41.992,7.812,0
60069.674,27.832,67.871,29.297,24.902,7.812,0
60069.678,53.223,62.988,21.973,21.484,2.441,0
60069.682,29.785,61.523,24.414,36.621,23.438,0
60069.686,0.488,67.383,35.156,38.086,56.152,0
60069.690,17.578,68.359,41.016,31.738,23.926,0
60069.694,44.434,56.641,27.832,21.973,37.109,0
60069.697,33.203,51.270,23.926,31.738,47.363,0
60069.701,4.883,59.570,34.180,40.527,50.781,0
60069.705,7.324,63.477,35.645,29.785,27.832,0
60069.709,38.574,58.105,25.391,16.113,29.785,0
60069.713,42.480,53.711,17.578,12.207,44.434,0
60069.717,16.113,60.059,31.250,27.832,25.391,0
60069.721,1.953,63.477,42.480,36.133,17.090,0
60069.725,26.855,55.664,31.250,21.484,30.273,0
60069.729,45.410,49.316,24.902,20.020,25.391,0
60069.733,30.762,52.246,26.855,34.180,17.090,0
60069.737,8.789,58.594,34.180,34.668,28.809,0
60069.740,20.996,54.688,36.133,21.484,34.180,0
60069.744,42.480,46.387,26.855,14.648,70.312,0
60069.748,37.109,50.781,29.785,25.879,42.480,0
60069.752,14.160,58.594,40.527,35.645,35.645,0
60069.756,24.902,58.105,36.621,25.879,48.828,0
60069.760,58.105,51.758,26.367,17.090,19.043,0
60069.764,52.246,50.781,23.438,17.578,2.441,0
60069.768,20.996,60.059,30.762,22.949,-6.348,0
60069.772,18.066,62.012,36.621,23.438,-40.527,0
60069.776,43.945,52.246,25.391,9.277,-70.801,0
60069.780,51.758,49.805,19.531,15.625,-21.973,0
60069.783,33.691,60.547,30.273,31.738,-11.230,0
60069.787,12.695,65.430,36.133,35.645,12.207,0
60069.791,28.320,55.176,23.926,19.043,32.715,0
60069.795,49.316,49.316,12.695,11.230,28.320,0
60069.799,29.785,52.734,18.066,23.926,35.156,0
60069.803,8.789,57.617,29.785,27.344,-0.977,0
60069.807,20.020,54.688,27.344,20.508,34.180,0
60069.811,40.039,48.828,18.066,17.578,32.715,0
60069.815,29.785,46.387,18.555,19.531,32.715,0
60069.819,6.348,54.199,31.738,25.391,20.020,0
60069.822,9.766,58.594,32.715,20.996,21.484,0
60069.826,34.668,53.223,22.461,13.672,53.223,0
60069.830,38.574,55.664,25.879,20.508,13.184,0
60069.834,14.648,59.570,33.691,25.879,14.160,0
60069.838,3.418,59.570,33.691,23.926,83.008,0
60069.842,24.414,54.199,26.855,18.066,80.078,0
60069.846,39.062,49.805,20.508,22.461,49.805,0
60069.850,16.602,52.734,20.508,34.180,14.160,0
60069.854,-5.371,54.199,25.391,29.785,15.137,0
60069.858,18.066,49.805,28.320,15.137,61.523,0
60069.862,40.527,45.410,21.484,10.742,64.453,0
60069.865,27.344,50.781,25.391,23.438,3.418,0
60069.869,11.719,59.082,41.016,31.738,35.645,0
60069.873,24.414,59.082,38.574,27.344,45.898,0
60069.877,47.363,52.246,27.344,20.020,24.902,0
60069.881,40.039,51.270,22.461,29.297,60.059,0
60069.885,12.207,59.570,30.762,39.062,53.711,0
60069.889,16.602,62.500,39.062,37.109,41.016,0
60069.893,46.875,51.758,28.809,24.902,75.195,0
60069.897,51.758,48.340,22.461,24.902,45.410,0
60069.901,26.367,57.129,32.715,41.992,20.508,0
60069.905,12.207,58.105,40.527,38.574,53.223,0
60069.908,31.250,52.734,32.227,23.438,22.461,0
60069.912,43.945,49.316,20.508,24.902,8.789,0
60069.916,28.809,52.246,24.414,38.574,26.855,0
60069.920,11.230,62.988,40.039,45.410,28.320,0
60069.924,39.551,62.500,35.156,33.203,2.441,0
60069.928,64.453,53.223,23.438,21.484,36.133,0
60069.932,44.922,51.758,33.203,35.156,41.016,0
60069.936,17.090,54.688,44.922,43.457,26.367,0
60069.940,18.066,56.641,38.574,31.250,31.738,0
60069.944,43.457,52.246,24.902,23.926,-8.301,0
60069.947,41.504,48.340,28.320,33.203,-25.879,0
60069.951,15.625,52.734,40.527,41.016,7.812,0
60069.955,19.531,58.594,44.922,37.598,26.367,0
60069.959,43.457,54.199,40.527,27.832,11.719,0
60069.963,44.434,47.852,36.133,25.391,-1.953,0
60069.967,24.414,55.176,43.457,36.133,-53.223,0
60069.971,15.625,59.570,50.293,33.203,-0.488,0
60069.975,38.086,50.781,37.598,16.602,19.043,0
60069.979,54.688,48.340,28.320,20.996,-8.789,0
60069.983,39.551,54.688,34.180,36.621,-23.438,0
60069.987,21.973,60.059,40.527,40.527,-24.414,0
60069.990,41.016,56.152,35.156,34.180,-7.812,0
60069.994,50.781,46.387,24.902,23.438,42.969,0
60069.998,35.645,47.363,31.738,30.273,55.176,0
60070.002,18.555,56.152,41.992,42.480,59.570,0
60070.006,31.738,59.082,43.945,42.480,26.855,0
60070.010,64.941,50.781,36.133,32.227,20.996,0
60070.014,62.500,50.781,26.855,34.180,97.168,0
60070.018,33.691,64.941,35.645,49.316,37.598,0
60070.022,28.320,67.383,41.016,47.852,-26.367,0
60070.026,52.246,55.664,30.762,34.180,0.488,0
60070.030,54.688,50.293,28.809,34.668,6.348,0
60070.033,36.621,53.223,34.180,41.992,25.391,0
60070.037,20.020,56.152,39.062,41.016,31.250,0
60070.041,34.180,49.805,34.668,30.762,41.504,0
60070.045,53.711,44.434,25.391,30.762,64.941,0
60070.049,40.039,48.340,27.832,41.016,33.691,0
60070.053,16.602,54.199,32.715,39.551,-30.762,0
60070.057,27.344,52.246,29.297,30.762,2.441,0
60070.061,55.664,49.316,23.926,33.203,7.812,0
60070.065,50.293,50.781,24.902,41.992,22.461,0
60070.069,27.832,60.059,36.133,43.457,45.410,0
60070.072,28.809,61.035,39.062,37.598,14.160,0
60070.076,50.781,43.945,21.973,23.926,-2.441,0
60070.080,56.152,43.945,15.625,29.297,2.930,0
60070.084,23.438,51.270,28.809,40.039,56.641,0
60070.088,8.789,52.246,39.551,40.527,63.965,0
60070.092,38.086,47.363,32.715,33.691,56.152,0
60070.096,47.363,41.016,20.996,30.273,33.691,0
60070.100,29.785,45.898,28.809,40.527,47.363,0
60070.104,14.648,54.688,39.062,42.969,27.344,0
60070.108,28.809,50.781,35.645,31.738,2.930,0
60070.112,47.363,42.969,25.879,21.973,37.598,0
60070.115,33.691,47.363,26.367,31.250,49.805,0
60070.119,8.789,56.152,35.645,41.504,66.406,0
60070.123,20.508,53.223,32.227,34.668,61.523,0
60070.127,44.434,47.852,25.879,28.809,21.484,0
60070.131,35.156,47.852,27.344,35.645,53.223,0
60070.135,15.137,52.246,34.180,40.039,79.590,0
60070.139,19.043,59.082,36.133,32.227,41.992,0
60070.143,39.062,51.758,26.855,19.531,12.695,0
60070.147,40.039,46.387,21.973,20.996,-1.953,0
60070.151,13.672,54.688,27.832,30.762,66.406,0
60070.155,7.324,58.594,36.133,37.598,95.215,0
60070.158,35.645,48.828,31.250,32.227,47.363,0
60070.162,51.758,44.434,23.926,26.855,40.039,0
60070.166,36.133,52.246,34.180,40.039,57.129,0
60070.170,15.625,53.711,44.922,40.527,84.961,0
60070.174,34.668,47.363,37.109,27.832,57.617,0
60070.178,55.176,45.898,27.832,27.832,22.949,0
60070.182,39.551,53.711,34.668,41.016,18.066,0
60070.186,20.508,62.500,47.363,50.781,21.973,0
60070.190,25.391,58.594,47.363,41.504,62.012,0
60070.194,47.363,47.363,31.250,31.738,30.762,0
60070.197,46.387,45.898,30.762,33.691,-13.672,0
60070.201,21.973,53.223,45.410,42.969,39.062,0
60070.205,18.555,55.664,49.316,45.410,56.641,0
60070.209,45.410,47.852,40.527,29.785,46.387,0
60070.213,56.641,43.457,33.691,21.973,93.750,0
60070.217,29.297,48.340,36.621,30.273,54.688,0
60070.221,10.254,53.223,43.457,33.203,16.113,0
60070.225,32.715,41.504,36.621,27.832,0.977,0
60070.229,45.898,31.738,24.414,28.320,-2.441,0
60070.233,26.855,31.738,29.297,33.203,49.805,0
60070.237,9.766,36.133,38.574,36.133,9.766,0
60070.240,30.273,38.086,35.645,29.297,-25.879,0
60070.244,53.711,33.203,27.832,27.832,18.555,0
60070.248,44.922,35.645,34.180,37.109,32.227,0
60070.252,15.625,41.992,44.434,42.969,56.641,0
60070.256,19.531,38.574,41.992,38.086,61.523,0
60070.260,46.875,26.367,34.180,29.297,-24.414,0
60070.264,48.828,23.438,32.715,36.133,15.137,0
60070.268,26.855,32.715,41.992,45.898,65.430,0
60070.272,15.137,34.180,42.480,38.086,17.090,0
60070.276,35.156,22.949,29.785,26.367,33.203,0
60070.280,44.434,18.066,23.438,25.391,0.000,0
60070.283,27.344,25.391,30.762,30.762,-3.906,0
60070.287,20.508,33.203,43.457,37.109,20.020,0
60070.291,43.457,28.809,40.039,29.785,36.621,0
60070.295,57.129,22.949,31.250,27.344,9.277,0
60070.299,40.039,27.344,36.133,41.016,-9.277,0
60070.303,20.020,32.715,45.410,44.922,-44.922,0
60070.307,30.273,29.785,42.969,31.250,-26.367,0
60070.311,44.434,20.508,32.227,21.484,15.625,0
60070.315,34.180,15.625,24.414,23.926,-11.230,0
60070.319,7.812,24.902,29.297,33.203,-14.160,0
60070.322,11.719,27.344,36.133,33.691,-4.883,0
60070.326,46.387,17.578,25.391,23.926,19.043,0
60070.330,54.688,17.090,21.973,34.668,48.340,0
60070.334,30.273,25.879,40.039,54.199,34.180,0
60070.338,21.484,26.855,47.852,50.293,-8.789,0
60070.342,43.945,15.137,37.598,35.156,12.695,0
60070.346,50.293,8.789,28.320,33.203,45.898,0
60070.350,29.297,18.066,34.180,40.527,42.969,0
60070.354,11.719,24.902,43.457,40.039,28.320,0
60070.358,37.598,16.113,39.062,31.250,12.695,0
60070.362,59.082,9.766,26.855,27.344,-4.395,0
60070.365,37.598,12.207,28.320,33.691,66.406,0
60070.369,17.090,17.578,40.039,38.086,48.828,0
60070.373,27.344,11.719,42.969,33.203,-9.277,0
60070.377,54.199,7.812,29.785,27.832,18.066,0
60070.381,49.316,17.090,21.973,32.227,44.434,0
60070.385,19.043,22.949,32.227,38.574,41.992,0
60070.389,18.066,20.508,41.016,34.668,15.625,0
60070.393,41.504,11.719,30.273,25.391,45.410,0
60070.397,42.480,9.277,22.461,29.297,20.508,0
60070.401,20.508,14.648,28.809,33.203,15.625,0
60070.405,5.859,18.066,34.180,26.367,39.062,0
60070.408,22.949,14.160,30.273,20.020,37.598,0
60070.412,42.480,7.324,24.414,22.461,6.836,0
60070.416,28.809,9.277,27.832,31.738,22.949,1
60070.420,11.719,17.090,35.156,40.039,24.414,0
60070.424,23.438,11.230,27.344,29.297,20.508,0
60070.428,37.598,2.441,18.555,21.484,41.016,0
60070.432,27.832,8.789,21.484,30.762,12.695,0
60070.436,-1.953,16.113,25.391,35.156,0.000,0
60070.440,5.859,16.113,26.367,31.250,4.395,0
60070.444,35.645,8.301,18.555,22.949,28.809,0
60070.447,32.227,9.766,10.742,23.926,58.594,0
60070.451,12.695,17.090,17.578,33.691,28.320,0
60070.455,15.137,14.160,26.367,30.762,15.625,0
60070.459,41.016,5.859,21.484,26.367,25.879,0
60070.463,45.898,2.441,20.508,34.180,34.180,0
60070.467,18.555,6.348,29.785,42.969,-5.859,0
60070.471,3.906,8.301,30.762,41.016,4.395,0
60070.475,30.762,3.418,19.043,24.414,62.500,0
60070.479,47.363,-0.977,14.648,27.344,45.410,0
60070.483,32.715,3.418,18.555,44.434,2.441,0
60070.487,14.648,11.719,25.391,42.480,16.602,0
60070.490,23.926,10.254,28.320,34.180,41.016,0
60070.494,41.992,-2.441,15.625,24.414,-3.418,0
60070.498,33.203,-3.906,16.113,25.391,-52.246,0
60070.502,9.277,4.395,31.250,37.109,-39.551,0
60070.506,13.184,1.465,34.180,34.180,26.855,0
60070.510,46.875,-3.906,26.367,22.949,35.645,0
60070.514,46.387,-5.371,22.461,27.344,3.906,0
60070.518,18.555,-2.441,27.344,35.645,21.484,0
60070.522,13.672,3.906,28.809,34.668,61.523,0
60070.526,32.227,-1.465,20.020,23.438,58.105,0
60070.530,38.086,-7.812,15.137,23.926,54.688,0
60070.533,23.438,1.465,20.996,34.180,46.875,0
60070.537,8.301,8.789,26.855,32.715,5.371,0
60070.541,23.438,-3.906,23.438,25.391,13.672,0
60070.545,39.551,-13.184,16.113,21.484,32.227,0
60070.549,26.855,-6.836,21.973,28.320,-6.836,0
60070.553,6.348,-6.348,25.879,28.809,43.457,0
60070.557,13.184,-15.137,19.043,18.066,8.301,0
60070.561,41.504,-23.438,11.719,17.578,2.930,0
60070.565,37.109,-21.973,12.207,26.855,32.715,0
60070.569,8.301,-14.160,23.438,32.227,-2.930,0
60070.572,7.812,-15.625,25.391,24.902,41.016,0
60070.576,33.203,-26.855,12.207,17.578,37.109,0
60070.580,38.086,-37.109,7.812,20.020,10.742,0
60070.584,16.113,-41.992,14.160,27.832,64.453,0
60070.588,13.672,-44.922,20.508,35.156,11.719,0
60070.592,32.715,-58.105,16.602,24.414,10.254,0
60070.596,36.133,-73.730,7.812,15.625,72.754,0
60070.600,24.414,-74.707,16.113,31.250,16.602,0
60070.604,16.602,-70.801,27.832,41.992,22.461,0
60070.608,30.273,-78.125,21.484,28.809,42.480,0
60070.612,49.805,-87.891,13.672,23.438,42.480,0
60070.615,40.039,-80.566,19.531,37.598,40.527,0
60070.619,12.695,-67.383,28.809,40.039,9.277,0
60070.623,22.949,-60.547,29.297,37.109,26.367,0
60070.627,47.852,-56.152,22.949,36.133,46.875,0
60070.631,45.410,-45.410,18.066,33.691,48.340,0
60070.635,24.902,-32.715,22.461,38.574,9.766,0
60070.639,17.578,-24.902,30.273,40.039,77.637,0
60070.643,41.016,-24.414,25.391,29.785,28.320,0
60070.647,45.410,-20.020,27.344,31.250,-41.992,0
60070.651,21.484,-7.812,38.574,37.109,45.410,0
60070.655,6.348,2.441,40.039,32.227,10.254,0
60070.658,22.461,0.488,23.926,14.160,-4.883,0
60070.662,40.527,2.930,12.695,11.719,50.293,0
60070.666,25.391,16.602,21.484,30.273,70.801,0
60070.670,8.301,30.762,38.086,34.180,59.570,0
60070.674,23.926,34.180,42.480,23.438,42.480,0
60070.678,40.527,32.227,29.785,17.578,64.941,0
60070.682,36.133,37.598,32.227,27.832,80.078,0
60070.686,2.441,41.016,40.527,28.320,51.270,0
60070.690,-2.930,50.781,42.480,14.648,65.918,0
60070.694,21.973,49.805,33.203,-2.930,32.227,0
60070.697,6.348,47.363,26.855,-4.395,-2.441,0
60070.701,-22.949,62.988,45.410,-1.953,35.156,0
60070.705,-28.809,73.242,52.246,-12.695,33.203,0
60070.709,-20.508,58.594,35.156,-36.133,-29.297,0
60070.713,-22.949,56.641,27.832,-49.805,-68.848,0
60070.717,-53.223,74.219,47.852,-45.898,-28.320,0
60070.721,-81.543,80.078,62.012,-59.082,46.387,0
60070.725,-70.312,74.219,52.246,-81.055,66.895,0
60070.729,-69.336,66.895,38.574,-102.051,-5.859,0
60070.733,-93.262,68.848,39.062,-104.492,3.906,0
60070.737,-117.676,76.172,53.711,-106.934,15.137,0
60070.740,-120.117,72.266,54.199,-124.512,-21.484,0
60070.744,-103.027,63.965,48.340,-135.254,5.859,0
60070.748,-101.562,67.383,54.199,-124.023,0.977,0
60070.752,-120.605,78.613,54.688,-112.793,16.113,0
60070.756,-115.723,76.660,50.293,-116.211,42.480,0
60070.760,-86.426,62.988,51.270,-120.605,-30.762,0
60070.764,-78.125,60.547,54.199,-104.492,-34.668,0
60070.768,-90.820,69.824,63.965,-83.008,7.324,0
60070.772,-81.543,69.336,66.895,-73.242,-6.836,0
60070.776,-35.156,60.059,52.246,-65.430,13.184,0
60070.780,-10.254,60.059,41.504,-46.387,39.551,0
60070.783,-18.066,65.430,48.340,-20.996,38.086,0
60070.787,-26.855,68.848,56.152,-3.418,61.035,0
60070.791,2.930,61.035,39.062,0.000,34.180,0
60070.795,37.598,52.246,22.461,7.812,33.203,0
60070.799,34.668,55.664,30.762,23.926,43.945,0
60070.803,20.996,62.988,42.480,31.250,77.148,0
60070.807,42.969,64.941,41.016,36.621,40.039,0
60070.811,72.266,59.570,26.367,43.457,7.812,0
60070.815,65.918,56.152,23.438,54.688,10.254,0
60070.819,47.363,61.523,34.180,67.383,22.461,0
60070.822,55.176,62.012,38.086,70.801,27.832,0
60070.826,80.078,57.129,26.367,64.453,20.020,0
60070.830,89.355,55.664,20.996,66.895,55.664,0
60070.834,75.684,57.617,25.391,79.102,32.227,0
60070.838,60.059,64.453,25.391,86.426,29.297,0
60070.842,84.473,60.059,18.555,74.707,8.301,0
60070.846,95.215,51.758,14.160,72.754,33.691,0
60070.850,71.289,57.129,17.578,80.566,42.480,0
60070.854,50.293,65.918,23.926,74.707,-2.930,0
60070.858,66.895,63.965,20.508,63.477,11.230,0
60070.862,85.938,57.129,11.719,60.059,21.973,0
60070.865,69.336,56.641,14.648,70.801,3.906,0
60070.869,46.387,65.430,23.438,74.219,32.715,0
60070.873,59.082,64.941,23.438,65.918,91.309,0
60070.877,87.402,53.223,10.742,59.082,29.785,0
60070.881,90.820,56.152,8.301,65.918,-37.109,0
60070.885,66.895,68.848,22.949,76.172,-15.625,0
60070.889,60.547,67.871,25.879,71.289,46.875,0
60070.893,89.355,57.617,19.043,63.477,73.730,0
60070.897,91.797,60.059,10.254,69.824,46.387,0
60070.901,66.406,69.824,12.695,83.008,27.832,0
60070.905,61.035,73.242,28.320,81.543,24.414,0
60070.908,80.566,65.430,27.344,71.777,4.395,0
60070.912,87.891,57.617,19.043,64.453,-0.977,0
60070.916,68.848,58.594,22.461,65.430,35.645,0
60070.920,50.293,65.918,29.785,70.312,-13.184,0
60070.924,59.082,62.988,24.902,63.965,17.578,0
60070.928,72.754,55.664,15.137,60.059,39.062,0
60070.932,67.383,59.082,16.113,65.918,3.418,0
60070.936,44.434,69.336,28.320,70.801,5.859,0
60070.940,46.875,69.336,28.320,63.965,42.480,0
60070.944,72.754,63.477,18.066,57.129,55.664,0
60070.947,67.383,63.965,20.020,62.500,63.965,0
60070.951,42.969,68.359,32.715,70.312,50.781,0
60070.955,47.852,69.824,39.062,75.195,-40.039,0
60070.959,74.219,64.941,26.855,61.523,-29.785,1
60070.963,79.102,62.988,19.531,61.035,-5.859,0
60070.967,57.617,70.801,28.809,74.707,-30.762,0
60070.971,43.457,75.195,41.016,66.406,-9.277,0
60070.975,61.035,63.965,31.738,50.781,0.488,0
60070.979,75.195,56.152,20.996,49.316,-19.531,0
60070.983,57.129,58.105,26.367,58.594,16.602,0
60070.987,36.621,67.383,36.133,66.895,74.219,0
60070.990,45.898,66.406,33.691,53.711,36.621,0
60070.994,64.941,55.176,22.949,41.504,-2.441,0
60070.998,59.082,58.105,25.391,53.711,-38.086,0
60071.002,35.156,62.988,31.738,55.664,-20.996,0
60071.006,43.457,59.082,27.832,48.340,-8.301,0
60071.010,56.641,53.711,20.508,36.133,-21.484,0
60071.014,49.316,51.758,15.137,35.645,-6.348,0
60071.018,31.738,57.617,26.367,52.246,-25.391,0
60071.022,26.855,59.570,31.250,50.781,24.902,0
60071.026,51.758,49.805,23.438,42.480,26.367,0
60071.030,62.012,46.387,19.043,41.016,-16.113,0
60071.033,45.410,53.711,21.484,45.898,33.203,0
60071.037,29.785,62.500,31.250,52.246,11.230,0
60071.041,44.434,58.594,29.785,47.363,-14.648,0
60071.045,61.035,49.316,24.414,43.457,36.133,0
60071.049,48.340,55.664,28.320,48.340,71.777,0
60071.053,27.832,64.453,30.762,47.852,41.016,0
60071.057,31.250,59.570,28.809,40.039,41.504,0
60071.061,53.223,51.270,30.273,37.109,25.879,0
60071.065,51.758,48.340,34.668,44.434,-10.742,0
60071.069,22.949,57.129,42.480,48.828,29.297,0
60071.072,24.902,61.523,38.086,42.480,52.734,0
60071.076,50.781,50.781,24.902,29.297,4.883,0
60071.080,52.246,46.387,21.973,25.391,32.715,0
60071.084,29.785,55.176,32.715,40.039,0.488,0
60071.088,20.508,59.082,38.574,42.969,21.973,0
60071.092,35.645,47.363,30.273,30.762,70.801,0
60071.096,52.734,39.551,24.414,29.297,26.367,0
60071.100,46.387,48.340,28.809,36.621,38.574,0
60071.104,25.879,54.688,36.133,39.062,62.988,0
60071.108,35.645,54.199,37.109,33.203,30.273,0
60071.112,53.711,45.410,25.879,22.949,27.344,0
60071.115,39.551,41.504,21.484,27.832,49.805,0
60071.119,15.625,50.781,29.785,38.086,49.316,0
60071.123,19.531,46.875,30.762,34.180,28.809,0
60071.127,45.410,36.621,26.855,28.320,21.484,0
60071.131,50.781,39.551,27.344,34.180,54.199,0
60071.135,21.973,50.293,34.180,43.945,74.219,0
60071.139,15.137,48.828,33.691,37.109,59.570,0
60071.143,39.062,37.109,24.902,25.391,36.621,0
60071.147,44.922,35.156,23.926,28.809,20.508,0
60071.151,22.949,45.410,31.250,38.574,-66.895,0
60071.155,11.719,45.898,33.691,32.715,-62.500,0
60071.158,36.621,33.203,27.344,21.484,20.020,0
60071.162,44.434,29.297,20.020,22.461,75.195,0
60071.166,22.461,37.109,24.902,32.227,57.617,0
60071.170,7.812,41.504,36.133,38.574,3.418,0
60071.174,24.902,35.156,33.691,31.250,0.000,0
60071.178,47.852,24.902,25.391,26.367,-35.645,0
60071.182,41.504,21.973,27.344,34.668,32.227,0
60071.186,16.602,33.691,38.574,46.387,60.547,0
60071.190,22.949,36.133,40.039,31.250,19.531,0
60071.194,54.688,23.926,26.367,20.020,42.969,0
60071.197,47.852,19.043,18.066,28.809,41.992,0
60071.201,18.555,21.973,28.809,33.691,28.320,0
60071.205,12.207,20.996,34.668,32.715,15.137,0
60071.209,37.598,12.207,24.902,24.414,41.992,0
60071.213,47.363,6.836,15.625,25.391,31.250,0
60071.217,19.531,7.324,20.996,34.668,-3.418,0
60071.221,-3.418,3.418,27.832,27.344,12.207,0
60071.225,19.531,-6.348,18.555,20.020,21.973,0
60071.229,44.434,-14.160,16.113,20.508,35.645,0
60071.233,32.715,-16.113,27.344,29.297,36.133,0
60071.237,8.301,-17.090,36.621,38.086,51.758,0
60071.240,22.949,-28.320,30.273,24.902,48.828,0
60071.244,43.457,-47.852,19.531,14.160,30.273,0
60071.248,36.133,-48.828,21.484,22.949,43.457,0
60071.252,16.113,-42.969,26.855,24.414,33.203,0
60071.256,16.602,-53.223,26.367,16.602,-10.742,0
60071.260,43.457,-68.848,17.578,8.789,-2.930,0
60071.264,51.270,-76.660,11.230,18.066,-1.465,0
60071.268,30.762,-78.613,26.855,37.109,15.137,0
60071.272,23.438,-83.496,39.551,37.109,19.531,0
60071.276,43.945,-105.469,22.461,29.297,12.695,0
60071.280,50.293,-119.141,13.672,30.762,39.062,0
60071.283,29.297,-119.141,25.879,36.133,2.930,0
60071.287,8.789,-123.535,36.621,41.016,16.602,0
60071.291,28.809,-138.184,32.227,28.320,63.965,0
60071.295,55.664,-150.879,20.996,20.508,20.996,0
60071.299,39.551,-151.367,22.461,38.086,12.695,0
60071.303,9.766,-150.879,32.227,46.387,83.008,0
60071.307,15.625,-155.762,32.227,32.715,73.242,0
60071.311,42.480,-163.086,21.484,23.438,37.598,0
60071.315,44.922,-164.551,23.926,35.645,24.902,0
60071.319,19.531,-159.668,32.227,47.363,40.039,0
60071.322,20.508,-157.227,31.738,45.410,42.969,0
60071.326,49.316,-160.156,21.484,35.645,73.730,0
60071.330,55.664,-158.203,20.020,38.574,63.477,0
60071.334,31.250,-152.832,24.902,44.922,-7.812,0
60071.338,12.207,-147.949,27.832,41.992,0.000,0
60071.342,32.715,-153.320,22.949,31.250,2.441,0
60071.346,41.504,-160.156,15.137,28.320,6.348,0
60071.350,25.391,-152.832,23.438,41.504,-7.324,0
60071.354,12.695,-142.578,33.203,39.551,49.316,0
60071.358,26.855,-145.020,28.809,26.855,63.965,0
60071.362,38.574,-148.926,18.066,17.578,8.301,0
60071.365,22.949,-139.648,17.090,21.484,11.719,0
60071.369,2.930,-123.047,29.785,39.062,45.898,0
60071.373,13.672,-113.281,32.715,41.016,44.922,0
60071.377,37.109,-116.211,18.066,29.297,-1.465,0
60071.381,30.762,-115.723,8.789,28.320,35.645,0
60071.385,7.812,-98.633,27.344,38.574,100.098,0
60071.389,5.859,-85.938,43.945,33.691,61.035,0
60071.393,30.273,-92.285,29.297,16.113,34.180,0
60071.397,45.898,-90.820,19.043,22.461,28.320,0
60071.401,26.855,-71.777,30.273,34.668,-2.441,0
60071.405,13.184,-54.199,38.086,33.203,4.395,0
60071.408,35.645,-50.293,30.273,20.996,44.922,0
60071.412,46.875,-48.340,21.973,18.555,46.387,0
60071.416,32.715,-35.645,22.461,32.227,80.078,0
60071.420,15.137,-16.602,32.715,37.109,54.688,0
60071.424,31.250,-12.695,31.250,26.855,-3.906,0
60071.428,53.223,-14.648,17.578,23.438,42.480,0
60071.432,42.969,-6.348,16.602,25.391,87.402,0
60071.436,14.648,7.324,26.367,26.367,20.020,0
60071.440,16.113,12.695,27.344,23.438,17.578,0
60071.444,46.387,10.742,17.090,17.578,13.672,0
60071.447,44.922,19.531,16.602,27.344,-41.992,0
60071.451,21.484,34.668,26.855,37.109,-24.414,0
60071.455,15.625,41.992,32.227,30.762,33.203,0
60071.459,40.039,41.016,27.832,22.461,44.922,0
60071.463,61.035,38.086,23.438,20.996,40.527,0
60071.467,36.133,49.316,28.809,31.738,35.156,0
60071.471,10.742,62.012,30.762,35.645,27.344,0
60071.475,27.832,53.223,20.020,18.066,103.516,0
60071.479,43.945,49.316,13.184,17.090,109.863,0
60071.483,31.250,59.082,17.578,29.297,23.926,0
60071.487,1.953,66.895,30.762,36.621,1.953,0
60071.490,17.090,65.430,30.273,26.855,2.441,0
60071.494,47.363,62.988,18.555,12.207,-11.719,0
60071.498,42.480,69.336,20.508,16.602,29.785,0
60071.502,17.578,81.543,33.203,25.879,63.477,2
60071.506,17.578,87.402,39.062,23.438,34.668,0
60071.510,40.527,77.637,30.273,13.184,0.977,0
60071.514,41.992,69.824,22.461,14.648,25.391,0
60071.518,23.438,79.590,28.320,26.855,15.137,0
60071.522,17.090,87.402,34.180,19.531,-8.789,0
60071.526,40.527,82.031,27.344,7.324,13.184,0
60071.530,49.316,80.078,24.902,14.648,10.254,0
60071.533,29.297,81.543,27.832,20.508,27.832,0
60071.537,7.812,89.355,30.762,21.484,35.645,0
60071.541,20.508,88.379,26.367,10.742,-19.043,0
60071.545,42.969,75.195,14.648,8.789,-9.766,0
60071.549,34.180,79.102,19.531,23.438,49.316,0
60071.553,16.113,91.309,34.180,29.785,39.062,0
60071.557,27.344,90.820,35.156,24.414,35.645,0
60071.561,50.781,83.496,26.855,23.926,9.766,0
60071.565,43.945,81.055,24.414,28.809,13.184,0
60071.569,21.484,90.332,33.691,29.297,21.484,0
60071.572,21.484,91.797,35.645,22.949,20.508,0
60071.576,43.457,83.008,24.414,15.625,41.992,0
60071.580,51.270,83.496,25.879,18.555,40.039,0
60071.584,40.527,90.332,39.062,34.668,16.602,0
60071.588,30.762,94.727,46.875,34.668,54.199,0
60071.592,42.480,87.891,39.062,19.531,82.031,0
60071.596,62.012,81.543,33.203,24.414,18.066,0
60071.600,45.898,88.379,38.574,35.156,37.598,0
60071.604,18.066,100.098,42.969,37.598,25.391,0
60071.608,33.203,97.656,40.039,28.320,-18.066,0
60071.612,54.688,88.867,26.855,19.531,-40.527,0
60071.615,42.969,89.844,24.902,28.809,-25.391,0
60071.619,12.695,98.633,42.480,39.062,56.641,0
60071.623,16.602,96.680,44.922,27.832,54.688,0
60071.627,44.922,87.402,30.273,16.113,39.062,0
60071.631,43.457,84.961,27.344,19.531,31.250,0
60071.635,17.090,90.820,38.086,27.344,2.930,0
60071.639,8.789,94.727,42.480,25.879,43.457,0
60071.643,34.180,85.938,33.203,11.719,6.348,0
60071.647,48.828,79.590,30.273,14.160,-65.430,0
60071.651,20.996,84.473,38.574,21.484,-31.250,0
60071.655,-0.488,91.309,44.434,20.996,41.016,0
60071.658,23.438,83.008,41.504,12.207,70.312,0
60071.662,47.363,76.172,34.668,9.766,88.867,0
60071.666,36.621,86.426,37.598,25.391,15.137,0
60071.670,11.719,95.215,47.363,37.109,-41.016,0
60071.674,28.809,89.355,43.945,22.949,17.578,0
60071.678,52.246,79.102,29.785,10.742,25.879,0
60071.682,37.598,77.637,31.738,26.855,55.664,0
60071.686,14.160,86.914,49.805,39.551,46.875,0
60071.690,21.484,93.750,50.293,27.832,-13.672,0
60071.694,47.363,83.496,33.203,15.137,-4.395,0
60071.697,48.340,81.543,25.391,20.996,23.438,0
60071.701,24.414,93.262,34.668,33.691,45.410,0
60071.705,9.766,94.727,40.039,24.902,-4.883,0
60071.709,26.367,86.426,30.273,6.836,-12.207,0
60071.713,35.645,80.566,23.438,9.277,32.227,0
60071.717,11.230,83.984,27.832,22.461,-15.137,0
60071.721,-8.301,91.309,36.621,26.367,0.488,0
60071.725,14.160,86.426,34.668,13.672,25.391,0
60071.729,35.645,76.660,26.367,11.719,40.527,0
60071.733,19.043,78.613,26.855,19.043,68.848,0
60071.737,-9.766,84.961,37.109,19.531,76.172,0
60071.740,0.488,80.078,32.227,14.160,20.020,0
60071.744,29.297,70.312,18.555,6.348,20.996,0
60071.748,27.832,71.777,26.855,19.531,40.039,0
60071.752,1.953,79.102,36.621,24.414,8.789,0
60071.756,1.953,78.613,34.180,16.113,-16.602,0
60071.760,33.203,70.801,27.344,13.184,46.387,0
60071.764,43.945,71.777,23.926,17.578,81.543,0
60071.768,20.996,83.496,32.715,28.809,36.133,0
60071.772,9.766,87.891,41.504,26.367,50.293,0
60071.776,37.598,76.660,34.180,14.160,51.758,0
60071.780,47.852,70.801,25.879,16.602,3.418,0
60071.783,18.066,74.707,30.762,25.879,8.301,0
60071.787,-3.906,78.613,37.598,23.438,71.289,0
60071.791,19.043,76.660,31.738,16.113,52.246,0
60071.795,45.898,69.824,22.461,19.043,35.156,0
60071.799,33.203,66.895,22.461,24.902,20.996,0
60071.803,8.789,75.684,31.250,29.785,26.855,0
60071.807,13.672,77.148,35.156,31.738,34.180,0
60071.811,39.551,66.895,24.414,27.832,4.395,0
60071.815,37.109,65.918,22.949,31.250,26.855,0
60071.819,9.766,71.289,33.203,37.598,41.504,0
60071.822,13.672,74.219,33.691,36.621,10.742,0
60071.826,42.480,69.824,23.438,32.227,39.062,0
60071.830,45.410,66.895,20.020,30.273,-22.949,0
60071.834,23.926,72.266,25.879,35.156,-8.301,0
60071.838,8.789,75.195,34.668,36.133,4.395,0
60071.842,29.785,65.430,26.855,26.367,-46.387,0
60071.846,42.969,58.105,9.766,19.043,-1.953,0
60071.850,20.508,61.035,19.043,27.344,16.602,0
60071.854,3.906,65.430,33.691,31.250,0.488,0
60071.858,21.484,63.965,33.203,20.996,43.945,0
60071.862,41.992,59.570,21.973,18.066,48.828,0
60071.865,36.133,64.453,21.484,29.297,29.785,0
60071.869,20.996,76.660,36.133,39.551,40.527,0
60071.873,23.926,73.730,38.086,31.738,-2.441,0
60071.877,41.504,62.500,24.902,19.531,50.781,0
60071.881,41.504,61.523,24.414,30.762,63.477,0
60071.885,18.066,67.871,37.598,46.387,42.480,0
60071.889,16.602,72.754,43.457,41.992,54.199,0
60071.893,41.992,65.430,36.621,29.785,15.137,0
60071.897,46.875,60.059,26.855,27.832,49.316,0
60071.901,18.555,64.453,30.273,33.203,44.434,0
60071.905,7.812,72.266,39.062,36.621,79.590,0
60071.908,32.715,69.824,37.598,30.273,71.289,0
60071.912,47.363,63.477,33.203,26.855,15.625,0
60071.916,33.691,68.848,38.086,36.621,55.664,0
60071.920,9.766,77.148,48.340,45.898,63.965,0
60071.924,21.973,71.777,41.504,35.156,27.344,0
60071.928,45.410,59.570,23.438,19.043,15.137,0
60071.932,38.086,57.617,22.461,21.484,38.086,0
60071.936,15.137,68.359,35.645,30.273,37.109,0
60071.940,16.602,71.289,37.109,26.855,9.277,0
60071.944,45.410,58.105,23.438,16.602,4.395,0
60071.947,49.316,54.199,19.531,21.973,-18.555,0
60071.951,21.484,64.941,27.832,29.785,8.301,0
60071.955,17.090,69.336,34.180,23.438,28.320,0
60071.959,36.133,61.035,27.832,14.160,10.742,0
60071.963,43.457,54.199,17.090,9.766,31.250,0
60071.967,27.344,59.570,23.438,24.414,-5.371,0
60071.971,9.277,66.406,33.691,33.203,1.465,0
60071.975,25.879,59.570,27.344,20.508,39.062,0
60071.979,42.969,50.781,16.113,14.160,17.578,0
60071.983,30.762,54.688,17.578,26.367,2.930,0
60071.987,9.766,60.059,31.738,39.062,1.953,0
60071.990,23.438,59.570,31.738,32.715,-2.441,0
60071.994,49.316,50.781,19.043,11.719,-28.809,0
60071.998,28.809,45.410,19.531,8.301,-35.645,0
60072.002,-6.348,52.734,27.344,16.602,6.348,0
60072.006,4.883,54.688,28.809,15.625,54.688,0
60072.010,34.668,45.898,19.531,8.301,34.668,0
60072.014,40.039,41.016,11.719,10.254,-12.695,0
60072.018,19.531,41.016,15.625,20.996,10.742,0
60072.022,8.789,42.480,22.949,21.484,63.965,0
60072.026,26.855,38.086,19.531,8.301,37.598,0
60072.030,45.898,32.227,9.766,8.789,11.230,0
60072.033,26.367,35.645,11.230,21.484,7.324,0
60072.037,-3.418,42.480,22.949,24.902,27.344,0
60072.041,19.043,40.039,20.020,18.555,-32.227,0
60072.045,42.480,31.738,9.277,10.742,-37.109,0
60072.049,27.344,33.203,14.648,20.508,40.527,0
60072.053,3.418,38.574,20.996,25.879,70.312,0
60072.057,10.742,37.109,18.555,15.137,92.285,0
60072.061,34.668,29.785,13.184,17.578,76.660,0
60072.065,29.785,25.879,14.160,22.461,8.789,0
60072.069,5.859,33.691,27.832,25.879,7.324,0
60072.072,3.906,37.109,31.738,25.391,16.113,0
60072.076,30.762,26.367,13.184,19.043,46.875,0
60072.080,38.574,24.414,5.859,19.531,77.637,1
60072.084,10.742,36.133,20.508,30.273,13.672,0
60072.088,-1.953,43.457,26.367,33.203,11.230,0
60072.092,23.438,37.109,11.719,14.648,-0.977,0
60072.096,46.875,27.344,5.859,5.371,2.930,0
60072.100,32.227,33.691,19.531,25.879,20.508,0
60072.104,12.207,44.434,33.203,39.551,27.344,0
60072.108,29.297,40.527,30.762,24.902,38.574,0
60072.112,54.199,29.785,21.484,18.555,37.109,0
60072.115,46.387,29.785,20.996,30.762,65.918,0
60072.119,19.531,34.180,29.297,36.621,71.777,0
60072.123,20.508,32.715,29.297,33.691,16.113,0
60072.127,50.293,25.391,20.020,30.273,-13.672,0
60072.131,51.270,22.461,19.531,34.180,11.230,0
60072.135,30.273,30.762,29.297,41.016,10.742,0
60072.139,22.461,32.715,32.227,35.645,31.738,0
60072.143,36.621,21.973,20.508,22.949,25.879,0
60072.147,44.922,17.090,14.648,26.367,-12.207,0
60072.151,25.391,25.391,24.902,36.621,29.785,0
60072.155,12.695,31.250,32.715,41.992,56.641,0
60072.158,37.109,22.461,23.926,33.691,29.297,0
60072.162,53.711,13.672,18.066,27.344,-35.645,0
60072.166,39.062,20.020,25.879,38.086,8.789,0
60072.170,29.297,32.227,38.574,48.340,92.773,0
60072.174,37.598,25.879,36.621,38.574,92.285,0
60072.178,53.711,15.137,26.367,30.762,57.617,0
60072.182,48.828,16.602,28.809,46.387,-1.465,0
60072.186,22.461,20.020,41.016,56.152,29.297,0
60072.190,20.996,20.020,42.480,47.852,66.895,0
60072.194,52.734,14.648,31.250,39.062,14.160,0
60072.197,61.523,12.207,33.203,48.340,49.316,0
60072.201,33.203,18.555,44.434,61.523,4.883,0
60072.205,15.625,23.438,52.246,54.688,-9.277,0
60072.209,43.457,17.090,45.410,40.527,36.133,0
60072.213,66.895,11.230,37.109,41.992,9.277,0
60072.217,38.574,17.090,40.527,49.805,-13.184,0
60072.221,18.066,23.926,45.410,50.781,19.531,0
60072.225,42.969,20.996,38.574,37.598,58.594,0
60072.229,59.570,13.672,29.297,35.156,12.207,0
60072.233,41.016,16.113,29.785,40.039,58.594,0
60072.237,22.461,26.367,41.992,41.016,27.832,0
60072.240,33.691,26.367,40.527,33.691,13.184,0
60072.244,58.594,15.137,25.879,24.902,74.707,0
60072.248,60.547,13.672,28.809,33.691,36.133,0
60072.252,31.738,23.438,41.504,40.527,24.414,0
60072.256,22.461,24.902,47.363,39.551,21.973,0
60072.260,47.363,15.137,42.480,31.250,62.012,0
60072.264,58.105,13.184,36.621,31.738,53.223,0
60072.268,32.715,24.414,44.922,41.504,17.090,0
60072.272,22.461,30.273,49.805,34.668,52.246,0
60072.276,46.387,21.973,37.598,18.555,33.203,0
60072.280,50.293,11.719,30.762,17.090,1.465,0
60072.283,31.738,16.113,37.598,34.668,34.668,0
60072.287,14.648,25.879,43.457,38.574,39.062,0
60072.291,26.855,21.484,38.086,27.832,42.969,0
60072.295,47.852,12.207,36.621,27.832,63.477,0
60072.299,33.203,11.230,41.992,36.621,68.359,0
60072.303,7.812,19.043,49.316,38.574,28.320,0
60072.307,21.484,22.949,47.363,27.832,16.113,0
60072.311,52.734,18.555,37.109,21.973,42.969,0
60072.315,47.363,14.160,34.668,28.809,71.289,0
60072.319,21.973,20.508,40.039,40.039,58.105,0
60072.322,18.555,24.902,41.504,39.062,16.602,0
60072.326,41.016,15.625,32.227,26.855,26.855,0
60072.330,54.688,14.160,27.832,31.250,14.160,0
60072.334,44.922,21.973,34.668,41.504,15.625,0
60072.338,25.391,28.809,42.969,43.945,25.391,0
60072.342,36.133,23.438,39.062,32.715,23.926,0
60072.346,54.688,17.578,30.762,33.203,35.156,0
60072.350,37.109,22.949,36.133,39.551,-28.320,0
60072.354,12.695,25.391,45.410,40.039,-32.227,0
60072.358,30.273,20.020,42.480,34.668,20.996,0
60072.362,53.711,8.301,33.203,26.855,25.391,0
60072.365,39.551,7.324,32.715,32.715,-9.766,0
60072.369,15.137,20.508,47.852,41.992,8.301,0
60072.373,17.578,21.484,50.293,33.691,38.086,0
60072.377,41.016,10.254,36.621,21.973,17.578,0
60072.381,41.016,7.812,34.668,29.297,-10.742,0
60072.385,19.043,15.137,43.457,40.039,-30.273,0
60072.389,7.812,21.973,49.805,35.645,15.137,0
60072.393,27.344,17.578,42.969,24.902,28.809,0
60072.397,39.551,9.766,31.250,22.461,-6.348,0
60072.401,24.902,17.090,36.133,32.227,-0.977,0
60072.405,9.766,24.902,41.016,34.180,0.977,0
60072.408,26.855,20.020,34.180,22.461,37.598,0
60072.412,47.852,13.672,31.738,19.043,52.246,0
60072.416,39.551,16.113,35.156,26.855,61.523,0
60072.420,13.672,28.809,44.434,34.180,76.172,0
60072.424,23.926,30.273,44.434,26.367,30.762,0
60072.428,51.758,20.508,32.715,17.578,28.809,0
60072.432,47.363,23.438,29.297,23.438,29.785,0
60072.436,21.973,35.156,39.551,36.133,-7.324,0
60072.440,18.555,38.086,41.992,30.273,55.176,0
60072.444,38.086,28.809,30.762,16.113,87.402,0
60072.447,41.016,27.344,31.738,23.438,28.809,0
60072.451,20.508,38.574,41.504,39.551,-1.465,0
60072.455,12.207,43.457,42.969,34.180,1.953,0
60072.459,37.109,38.086,34.180,19.531,44.434,0
60072.463,52.734,33.691,27.344,15.625,21.973,0
60072.467,32.715,41.992,35.156,26.855,3.418,0
60072.471,10.742,51.758,45.410,29.297,43.457,0
60072.475,26.855,47.363,40.527,18.555,75.195,0
60072.479,48.340,41.992,32.227,19.531,80.566,0
60072.483,35.156,43.945,32.715,29.785,88.867,0
60072.487,10.742,55.176,42.480,39.062,84.473,0
60072.490,26.855,58.594,42.480,28.320,52.246,0
60072.494,51.758,49.805,32.227,20.996,22.949,0
60072.498,41.504,50.781,32.227,27.832,-21.484,0
60072.502,20.020,59.082,36.133,30.273,20.508,0
60072.506,24.902,59.082,42.480,26.367,26.855,0
60072.510,46.875,47.852,41.504,15.137,-22.461,0
60072.514,50.293,41.992,34.180,11.719,-65.918,0
60072.518,20.996,50.293,39.551,23.438,-57.129,0
60072.522,5.859,59.570,48.340,22.461,-42.969,0
60072.526,31.738,49.316,34.180,9.277,-13.184,0
60072.530,47.363,36.133,22.949,10.742,9.766,0
60072.533,28.809,42.480,29.297,19.531,12.207,0
60072.537,4.883,50.293,40.039,21.484,2.441,0
60072.541,18.555,47.363,37.598,8.301,17.090,0
60072.545,37.598,37.598,26.367,3.418,18.555,0
60072.549,35.645,42.969,28.320,15.137,15.137,0
60072.553,13.184,54.199,39.551,21.973,0.000,0
60072.557,15.625,52.246,41.992,20.020,42.480,0
60072.561,49.316,45.410,33.203,15.625,63.477,0
60072.565,47.852,42.480,30.273,17.090,18.066,0
60072.569,19.531,49.805,40.039,30.273,46.387,0
60072.572,20.020,55.176,45.898,32.715,54.688,0
60072.576,42.969,48.340,37.109,22.461,9.277,0
60072.580,48.340,43.457,31.250,22.461,26.855,0
60072.584,27.344,47.852,36.133,26.367,13.184,0
60072.588,13.672,51.270,44.922,26.367,-4.883,0
60072.592,37.598,45.898,41.992,19.531,-33.691,0
60072.596,55.176,41.992,30.273,18.555,0.000,0
60072.600,36.621,46.387,26.367,27.344,20.020,0
60072.604,15.137,52.734,37.598,28.320,2.441,0
60072.608,24.414,48.340,38.574,17.090,26.855,0
60072.612,42.480,39.062,28.320,7.812,13.184,0
60072.615,31.738,35.156,27.832,11.230,-28.320,0
60072.619,9.766,41.992,38.086,21.973,-9.766,0
60072.623,15.137,44.922,43.457,20.996,9.277,0
60072.627,36.133,35.645,33.203,14.648,50.293,0
60072.631,37.109,31.738,20.508,18.066,66.895,0
60072.635,16.113,41.992,27.344,26.367,52.734,0
60072.639,13.184,48.340,41.992,29.297,90.820,0
60072.643,38.086,39.551,31.738,17.090,58.594,0
60072.647,46.875,34.180,22.949,13.672,41.992,0
60072.651,27.344,43.945,34.180,21.973,52.246,0
60072.655,14.160,51.270,42.480,24.414,16.113,0
60072.658,32.715,43.945,41.504,16.602,19.043,0
60072.662,48.828,29.785,30.762,11.230,19.531,0
60072.666,34.668,33.691,25.879,21.484,2.930,0
60072.670,14.648,48.828,37.598,29.785,4.395,0
60072.674,23.438,42.480,38.574,19.531,11.719,0
60072.678,43.945,30.762,28.320,14.160,16.113,0
60072.682,39.551,32.227,26.855,17.578,21.973,0
60072.686,10.254,40.039,35.645,24.414,68.848,0
60072.690,6.836,39.062,38.574,17.090,59.082,0
60072.694,35.156,26.367,29.297,2.441,-40.527,2
60072.697,40.039,22.949,25.391,5.859,-47.363,0
60072.701,16.113,30.762,32.227,15.625,3.906,0
60072.705,9.277,35.156,39.551,13.184,39.551,0
60072.709,31.738,26.367,35.156,7.812,61.035,0
60072.713,45.410,19.043,28.320,18.066,81.543,0
60072.717,30.762,26.855,35.156,32.227,100.586,0
60072.721,11.719,29.297,41.992,27.832,137.695,0
60072.725,27.832,20.508,34.668,19.531,113.281,0
60072.729,43.945,16.113,25.879,18.555,51.270,0
60072.733,34.180,18.555,28.320,24.902,59.570,0
60072.737,13.184,26.855,32.715,29.785,82.520,0
60072.740,18.555,22.949,28.809,18.555,53.223,0
60072.744,39.551,12.695,19.531,7.812,3.418,0
60072.748,35.645,15.137,21.484,18.066,36.621,0
60072.752,12.695,21.484,30.273,25.391,85.449,0
60072.756,5.859,23.926,32.715,19.531,81.543,0
60072.760,33.203,20.996,23.438,18.555,2.930,0
60072.764,42.969,16.113,19.043,24.414,-13.184,0
60072.768,20.020,22.949,26.367,34.180,-9.766,0
60072.772,8.301,27.832,29.785,30.273,-84.473,0
60072.776,29.297,17.578,26.855,19.043,-19.043,0
60072.780,41.504,15.137,24.902,24.414,32.227,0
60072.783,20.020,22.949,30.273,32.227,-3.418,0
60072.787,2.930,35.645,39.551,33.203,5.371,0
60072.791,24.414,37.109,39.551,26.855,17.578,0
60072.795,39.062,22.461,23.438,13.184,9.766,0
60072.799,27.344,24.414,22.461,22.461,56.641,0
60072.803,8.301,37.109,38.086,37.109,71.289,0
60072.807,15.137,39.062,40.527,33.691,-4.395,0
60072.811,42.480,31.250,32.715,22.461,-22.949,0
60072.815,40.527,28.320,26.855,26.855,-2.930,0
60072.819,18.066,35.645,31.250,37.598,-5.371,0
60072.822,15.137,39.551,38.574,35.156,11.719,0
60072.826,42.969,37.598,34.668,33.203,0.977,0
60072.830,51.270,36.621,28.320,33.691,-17.578,0
60072.834,23.438,42.969,32.227,33.203,-2.930,0
60072.838,8.301,50.781,38.086,32.715,59.570,0
60072.842,30.273,44.922,34.180,23.926,31.738,0
60072.846,48.340,36.133,27.344,24.414,2.930,0
60072.850,34.180,43.945,33.691,38.086,7.324,0
60072.854,13.672,57.617,47.363,45.410,17.578,0
60072.858,23.438,51.758,46.875,38.574,45.410,0
60072.862,42.969,40.527,35.645,31.738,26.367,0
60072.865,35.645,42.969,33.691,35.645,54.688,0
60072.869,8.789,50.293,37.109,38.574,50.781,0
60072.873,11.719,51.270,33.691,32.715,45.898,0
60072.877,42.480,46.387,23.438,22.949,47.852,0
60072.881,42.480,42.969,23.438,28.809,1.953,0
60072.885,15.137,48.828,35.645,37.109,46.387,0
60072.889,7.324,60.059,46.875,37.598,68.359,0
60072.893,33.691,51.758,39.551,25.879,52.246,0
60072.897,47.363,39.551,29.785,22.461,13.184,0
60072.901,25.879,42.480,35.645,35.645,-44.434,0
60072.905,0.000,45.898,44.434,38.574,-12.207,0
60072.908,16.113,40.039,38.086,24.414,28.320,0
60072.912,38.086,33.691,25.391,12.207,57.617,0
60072.916,24.414,42.480,31.250,21.484,32.715,0
60072.920,6.836,54.688,45.898,34.668,-26.367,0
60072.924,23.438,55.176,37.598,28.320,-5.859,0
60072.928,43.945,47.363,21.973,20.508,31.250,0
60072.932,38.086,47.852,27.344,24.414,9.766,0
60072.936,18.066,55.664,37.109,34.180,19.043,0
60072.940,18.066,54.199,41.992,36.133,12.695,0
60072.944,44.434,44.922,34.668,21.973,20.508,0
60072.947,46.875,43.945,26.855,24.414,40.039,0
60072.951,21.973,52.246,32.715,34.668,22.461,0
60072.955,15.137,59.082,40.527,29.785,25.879,0
60072.959,37.109,49.805,33.203,19.531,22.461,0
60072.963,41.992,35.645,23.926,19.043,35.156,0
60072.967,22.461,43.457,29.297,33.691,50.293,0
60072.971,7.812,54.688,32.227,35.156,57.617,0
60072.975,23.926,45.898,21.484,22.949,65.430,0
60072.979,47.363,39.062,15.137,21.973,46.387,0
60072.983,38.086,44.922,22.949,29.785,46.875,0
60072.987,13.672,54.199,37.598,41.016,54.199,0
60072.990,20.020,49.805,32.227,34.668,91.309,0
60072.994,41.992,35.156,16.602,16.113,84.961,0
60072.998,41.504,36.621,17.578,26.367,-1.465,0
60073.002,21.973,48.828,28.320,37.109,-18.066,0
60073.006,21.973,53.223,32.227,34.180,21.973,0
60073.010,44.434,43.457,24.414,27.344,66.406,0
60073.014,47.852,36.621,19.531,27.832,37.109,0
60073.018,28.809,43.945,28.320,42.480,-12.695,0
60073.022,16.113,48.828,38.574,41.992,-23.438,0
60073.026,41.504,43.945,32.715,27.344,-25.391,0
60073.030,57.617,40.039,24.414,23.438,-9.277,0
60073.033,29.785,40.039,24.902,29.297,-16.113,0
60073.037,7.812,49.316,32.227,34.180,-15.137,0
60073.041,31.250,49.805,35.645,27.832,-33.691,0
60073.045,51.758,39.062,26.855,20.996,23.926,0
60073.049,42.480,45.898,22.461,25.879,67.383,0
60073.053,24.414,60.059,32.227,38.574,24.414,0
60073.057,26.855,58.594,34.180,35.645,90.820,0
60073.061,48.828,50.293,21.484,23.926,83.496,0
60073.065,47.852,48.828,19.043,27.832,20.508,0
60073.069,22.461,58.105,32.715,37.109,50.781,0
60073.072,18.066,64.453,39.551,35.156,69.824,0
60073.076,44.434,57.129,30.273,22.461,46.387,0
60073.080,50.293,52.734,23.926,21.973,38.086,0
60073.084,27.832,59.082,35.156,38.086,21.484,0
60073.088,18.066,65.430,45.410,47.852,30.762,0
60073.092,36.621,57.129,35.645,30.762,1.465,0
60073.096,53.711,49.316,22.949,25.879,-5.371,0
60073.100,35.645,52.734,23.438,37.109,-0.977,0
60073.104,5.371,59.082,39.062,36.621,44.434,0
60073.108,18.555,59.570,41.504,33.203,50.781,0
60073.112,45.410,52.246,30.762,26.367,-22.461,0
60073.115,41.504,51.270,28.809,27.832,-14.160,0
60073.119,20.020,60.059,38.086,36.621,29.785,0
60073.123,22.461,58.594,41.016,31.738,-4.395,0
60073.127,51.270,53.223,35.156,23.926,-22.461,0
60073.131,50.781,55.664,30.273,32.227,16.113,0
60073.135,23.926,62.012,33.691,41.016,30.762,0
60073.139,18.066,62.500,40.039,34.668,9.277,0
60073.143,37.109,54.199,29.297,23.926,19.043,0
60073.147,45.898,47.852,21.484,27.832,34.180,0
60073.151,29.297,55.176,28.809,34.180,73.242,0
60073.155,10.254,65.430,40.039,32.715,66.895,0
60073.158,27.344,59.570,39.062,23.926,-27.832,0
60073.162,51.270,49.316,26.855,18.066,-16.113,0
60073.166,38.574,53.223,27.832,25.879,28.320,0
60073.170,13.184,63.965,41.992,31.250,5.859,0
60073.174,21.484,59.570,38.574,22.461,58.594,0
60073.178,47.363,51.270,24.414,20.020,55.176,0
60073.182,44.434,56.152,23.438,27.344,-22.461,0
60073.186,18.555,68.359,34.668,39.062,13.672,0
60073.190,14.160,70.801,37.598,34.180,25.879,0
60073.194,37.109,58.594,24.902,17.578,38.086,0
60073.197,44.922,56.152,21.973,25.879,25.879,0
60073.201,21.484,63.477,31.738,37.109,17.578,0
60073.205,6.348,64.941,34.668,27.832,30.762,0
60073.209,27.832,61.523,28.809,12.207,-10.254,0
60073.213,47.852,59.570,21.484,10.742,-83.008,0
60073.217,31.250,63.477,25.879,23.438,-33.691,0
60073.221,11.719,72.266,36.621,30.273,21.973,0
60073.225,25.879,65.430,28.809,16.602,23.438,0
60073.229,41.992,54.688,20.020,5.859,21.484,0
60073.233,31.738,56.641,25.879,16.602,99.609,0
60073.237,6.836,62.500,42.969,27.344,111.328,0
60073.240,7.324,61.035,42.480,21.484,18.555,0
60073.244,38.086,54.688,28.809,15.137,48.340,0
60073.248,42.969,59.082,29.785,21.484,87.891,0
60073.252,14.648,65.430,38.574,24.414,26.367,0
60073.256,9.277,62.500,41.504,19.043,-32.227,0
60073.260,37.109,54.688,34.180,12.207,8.789,0
60073.264,47.363,53.223,25.391,20.020,36.621,0
60073.268,23.926,61.035,33.691,34.668,30.273,0
60073.272,9.277,62.500,44.922,32.227,25.391,0
60073.276,33.691,54.688,38.086,20.020,30.273,0
60073.280,53.223,49.805,31.738,25.391,22.949,2
60073.283,35.645,51.758,34.668,40.527,20.508,0
60073.287,12.207,60.059,43.945,44.922,61.035,0
60073.291,33.203,58.594,41.992,40.527,87.891,0
60073.295,54.688,50.293,31.738,32.715,39.551,0
60073.299,42.480,52.734,34.668,38.574,2.930,0
60073.303,16.113,60.547,43.457,44.434,32.715,0
60073.307,20.020,61.035,43.457,36.621,37.598,0
60073.311,49.316,52.734,33.691,31.250,25.391,0
60073.315,49.316,50.781,23.438,29.297,39.551,0
60073.319,20.996,61.035,31.738,37.109,64.453,0
60073.322,17.578,64.453,38.574,39.062,31.738,0
60073.326,48.340,57.129,27.832,30.273,23.926,0
60073.330,61.035,50.293,24.414,34.180,32.227,0
60073.334,42.480,53.223,34.180,45.410,4.395,0
60073.338,25.391,62.012,43.457,45.898,8.789,0
60073.342,43.945,58.594,38.574,30.762,0.977,0
60073.346,60.059,46.875,30.762,26.367,-21.973,0
60073.350,46.387,51.758,35.156,36.621,25.391,0
60073.354,27.344,60.547,43.457,39.062,57.617,0
60073.358,40.527,56.152,39.062,36.621,62.500,0
60073.362,63.965,49.805,32.715,27.832,51.758,0
60073.365,54.199,49.805,35.645,33.203,-4.395,0
60073.369,22.949,56.641,40.039,45.898,19.043,0
60073.373,17.578,55.176,40.039,43.457,44.922,0
60073.377,46.875,45.898,39.062,33.203,-11.230,0
60073.381,52.246,45.410,36.621,31.738,4.395,0
60073.385,28.320,51.758,42.480,39.551,18.555,0
60073.389,18.066,50.293,45.410,41.016,3.906,0
60073.393,35.156,42.480,38.086,25.879,21.973,0
60073.397,50.781,40.527,32.715,20.508,26.367,0
60073.401,26.855,49.316,33.691,33.203,46.875,0
60073.405,13.672,56.152,44.922,35.156,24.902,0
60073.408,35.156,52.246,42.480,24.414,23.438,0
60073.412,43.457,44.434,25.879,19.531,72.266,0
60073.416,30.273,43.945,23.926,26.367,52.246,0
60073.420,6.836,52.734,36.621,34.668,96.680,0
60073.424,17.578,48.828,39.062,29.297,97.656,0
60073.428,45.410,36.621,27.832,25.391,19.043,0
60073.432,39.551,36.621,25.391,32.715,-15.137,0
60073.436,9.766,47.852,38.574,36.621,20.996,0
60073.440,9.766,52.246,43.457,33.691,20.508,0
60073.444,36.133,42.480,29.785,21.973,-27.344,0
60073.447,41.016,37.598,22.949,28.320,9.766,0
60073.451,20.508,42.969,28.809,42.480,46.387,0
60073.455,10.742,45.410,36.621,40.527,71.777,0
60073.459,31.738,39.551,31.250,30.762,67.871,0
60073.463,48.340,33.203,19.043,29.297,5.859,0
60073.467,40.527,40.527,27.344,46.387,-43.945,0
60073.471,20.996,50.293,42.969,49.805,-32.227,0
60073.475,32.227,42.969,39.062,33.203,9.766,0
60073.479,56.152,35.645,26.855,28.809,12.695,0
60073.483,45.410,42.480,25.879,36.133,-9.277,0
60073.487,14.160,49.805,35.156,44.434,-17.090,0
60073.490,22.461,47.363,39.062,37.598,-7.812,0
60073.494,46.875,41.016,26.367,22.461,44.434,0
60073.498,40.527,42.969,22.949,25.391,53.711,0
60073.502,16.602,51.758,37.598,37.109,33.203,0
60073.506,13.184,54.688,38.574,34.180,27.832,0
60073.510,36.133,45.898,28.809,21.973,20.508,0
60073.514,44.434,39.551,31.738,21.973,41.504,0
60073.518,30.762,45.410,41.504,33.691,63.477,0
60073.522,17.090,51.270,44.434,33.203,68.848,0
60073.526,37.598,43.945,33.691,30.762,38.574,0
60073.530,55.664,35.645,26.367,28.809,-5.859,0
60073.533,36.133,39.551,30.273,34.180,15.625,0
60073.537,10.742,44.922,40.039,39.062,26.855,0
60073.541,24.414,36.133,39.551,26.367,24.902,0
60073.545,47.852,27.344,31.738,25.879,30.273,0
60073.549,34.180,34.180,33.203,29.785,13.184,0
60073.553,10.742,43.457,41.016,30.273,-35.156,0
60073.557,10.254,40.527,39.062,23.926,-5.371,0
60073.561,33.691,31.738,29.297,9.766,45.898,0
60073.565,35.645,30.273,23.926,14.160,41.504,0
60073.569,13.184,41.016,31.250,25.879,62.988,0
60073.572,9.277,46.387,40.527,21.484,82.031,0
60073.576,34.180,34.180,32.227,14.648,45.410,0
60073.580,45.410,28.809,22.461,18.555,34.180,0
60073.584,31.738,33.203,27.832,27.344,85.449,0
60073.588,17.578,39.062,36.621,30.273,48.340,0
60073.592,32.227,34.180,33.691,21.973,-10.254,0
60073.596,49.805,19.531,23.926,20.508,6.348,0
60073.600,32.715,21.484,30.273,31.250,11.230,0
60073.604,11.719,29.297,37.109,36.621,13.672,0
60073.608,25.879,27.832,32.715,28.809,51.758,0
60073.612,46.387,19.531,22.949,20.508,31.250,0
60073.615,34.668,14.648,20.508,25.391,-15.137,0
60073.619,3.418,21.484,30.762,29.297,-4.883,0
60073.623,0.488,20.508,35.645,25.391,20.020,0
60073.627,26.367,11.719,27.344,11.719,50.293,0
60073.631,31.738,7.324,22.461,13.184,39.551,0
60073.635,13.672,10.742,29.785,27.832,4.883,0
60073.639,4.883,15.137,34.180,22.461,4.395,0
60073.643,24.902,6.836,26.367,7.812,15.625,0
60073.647,36.133,3.418,17.578,11.230,23.438,0
60073.651,26.367,8.301,22.461,27.344,54.199,0
60073.655,13.672,9.277,36.133,29.785,49.805,0
60073.658,26.855,2.930,34.180,20.020,21.484,0
60073.662,49.316,-1.465,30.273,25.391,-3.906,0
60073.666,37.598,1.953,34.668,35.645,-7.324,0
60073.670,16.113,10.742,41.016,39.551,12.207,0
60073.674,28.320,4.883,41.016,32.227,12.695,0
60073.678,50.293,-13.184,30.273,20.996,-43.457,0
60073.682,40.039,-17.090,22.461,25.391,-63.965,0
60073.686,11.719,-12.207,28.809,31.738,-10.254,0
60073.690,10.254,-10.742,36.621,28.809,30.762,0
60073.694,41.016,-18.066,27.344,17.090,38.086,0
60073.697,46.875,-25.391,17.090,20.020,22.949,0
60073.701,21.973,-20.996,23.926,30.273,12.207,0
60073.705,3.418,-18.066,31.250,26.855,28.320,0
60073.709,28.809,-25.879,27.344,20.508,39.551,0
60073.713,48.828,-34.180,22.949,24.902,34.668,0
60073.717,24.902,-29.297,31.250,35.156,21.484,0
60073.721,0.977,-20.508,36.133,31.250,16.113,0
60073.725,14.160,-23.438,28.809,19.043,33.203,0
60073.729,34.668,-31.738,22.949,15.137,6.348,0
60073.733,27.832,-32.715,27.344,20.996,24.902,0
60073.737,5.859,-25.391,34.180,31.250,45.898,0
60073.740,12.695,-26.855,32.227,28.809,-0.977,0
60073.744,41.016,-35.645,21.973,20.020,-28.320,0
60073.748,42.969,-34.668,22.461,26.367,-2.930,0
60073.752,17.578,-26.855,33.203,35.645,40.039,0
60073.756,14.648,-22.461,38.086,31.250,97.168,0
60073.760,40.527,-31.250,26.367,20.996,101.074,0
60073.764,42.969,-37.598,17.578,24.902,50.781,0
60073.768,23.438,-29.785,26.367,36.133,56.641,0
60073.772,12.207,-23.438,34.180,33.691,55.664,0
60073.776,33.691,-30.762,20.020,20.508,18.066,0
60073.780,47.363,-40.527,11.719,19.531,23.438,0
60073.783,38.086,-33.691,23.438,27.344,48.828,0
60073.787,11.230,-18.066,34.668,27.832,39.062,0
60073.791,16.113,-18.555,34.180,19.531,73.730,0
60073.795,47.852,-28.809,21.484,12.695,47.852,0
60073.799,41.504,-31.250,19.531,16.113,2.930,0
60073.803,12.695,-22.949,27.832,22.461,34.180,0
60073.807,13.672,-19.043,30.762,20.508,12.695,0
60073.811,37.598,-28.809,26.367,12.207,14.160,0
60073.815,38.086,-35.645,21.973,15.137,31.250,0
60073.819,14.648,-26.855,26.855,23.926,23.926,0
60073.822,9.277,-19.531,31.738,18.555,53.223,0
60073.826,35.645,-23.926,28.809,12.695,78.613,0
60073.830,47.852,-26.367,27.832,14.648,62.988,0
60073.834,29.785,-22.949,34.668,17.578,45.898,0
60073.838,6.836,-18.555,43.457,23.926,-21.484,0
60073.842,23.926,-24.902,35.645,16.113,-31.738,0
60073.846,42.969,-30.273,27.832,9.766,49.805,0
60073.850,24.902,-20.996,35.645,18.555,42.480,0
60073.854,1.465,-11.230,46.875,20.020,2.441,0
60073.858,12.207,-12.695,45.410,14.160,-11.230,0
60073.862,38.086,-17.578,31.738,2.441,44.434,0
60073.865,32.227,-15.137,27.832,8.301,59.570,0
60073.869,4.883,-7.324,41.504,25.391,39.062,0
60073.873,7.812,-5.859,42.480,14.160,40.039,0
60073.877,36.621,-13.184,28.809,1.953,51.270,0
60073.881,41.016,-14.648,25.391,6.836,60.547,0
60073.885,14.648,-7.812,36.133,15.137,5.859,0
60073.889,0.977,-2.930,38.574,15.625,-21.484,0
60073.893,29.297,-8.301,25.391,7.324,-11.230,0
60073.897,42.969,-13.184,21.973,4.883,-2.441,0
60073.901,22.949,-10.254,27.344,16.113,-8.789,0
60073.905,6.836,-3.906,37.598,25.391,-20.996,0
60073.908,29.297,-3.418,36.621,19.043,34.180,0
60073.912,52.734,-6.836,24.414,14.160,29.785,0
60073.916,40.039,-5.371,23.926,21.484,-11.719,0
60073.920,14.160,0.000,33.691,32.715,24.902,0
60073.924,21.973,-0.977,31.250,24.414,44.434,0
60073.928,51.758,-5.859,26.855,20.020,0.488,0
60073.932,48.828,-7.324,28.320,27.832,5.859,0
60073.936,21.484,-1.953,34.668,33.203,57.129,0
60073.940,19.043,5.371,40.039,35.645,68.359,0
60073.944,44.922,1.465,30.762,29.297,12.207,1
60073.947,52.734,-0.488,19.531,28.320,-21.973,0
60073.951,30.273,9.766,22.949,34.668,39.551,0
60073.955,21.484,18.066,34.180,40.527,47.852,0
60073.959,41.992,10.254,26.855,28.320,0.488,0
60073.963,54.199,0.488,10.742,18.555,-7.812,0
60073.967,39.062,7.812,16.113,27.832,-0.488,0
60073.971,16.602,20.020,31.738,29.785,48.828,0
60073.975,31.738,13.672,27.344,17.578,32.227,0
60073.979,45.410,1.953,16.113,13.672,18.555,0
60073.983,30.273,4.395,17.578,23.438,31.250,0
60073.987,9.766,16.113,25.879,27.832,31.738,0
60073.990,17.090,17.090,30.762,25.391,53.711,0
60073.994,42.480,10.254,25.879,21.973,-45.898,0
60073.998,42.969,12.207,24.414,30.762,-31.250,0
60074.002,21.484,19.043,33.203,42.969,64.453,0
60074.006,13.672,21.973,39.551,40.527,34.668,0
60074.010,36.133,16.602,28.809,26.855,59.082,0
60074.014,51.758,9.277,18.555,25.391,27.344,0
60074.018,28.809,13.184,23.438,34.180,26.367,0
60074.022,9.766,19.531,31.738,33.203,70.312,0
60074.026,38.086,17.090,29.297,23.926,25.391,0
60074.030,59.570,17.090,24.414,24.414,21.973,0
60074.033,40.527,20.508,19.531,32.227,36.621,0
60074.037,22.949,28.809,24.902,33.203,40.527,0
60074.041,35.156,26.855,31.250,22.461,63.477,0
60074.045,50.293,17.090,26.367,18.555,43.457,0
60074.049,43.945,20.996,27.344,25.879,43.457,0
60074.053,18.555,28.320,34.668,33.203,55.176,0
60074.057,18.066,28.809,35.645,25.879,26.367,0
60074.061,45.898,18.555,27.832,14.648,12.207,0
60074.065,53.711,13.184,25.879,23.438,6.836,0
60074.069,35.645,26.367,37.598,38.086,20.020,0
60074.072,24.902,35.645,42.969,35.645,40.039,0
60074.076,43.945,27.832,29.785,22.949,-12.207,0
60074.080,61.523,20.508,20.508,22.949,-22.461,0
60074.084,34.668,28.809,27.832,33.203,41.016,0
60074.088,9.766,37.598,40.527,34.668,42.969,0
60074.092,31.738,29.297,34.668,20.996,-6.836,0
60074.096,52.246,17.578,24.414,14.160,11.230,0
60074.100,43.945,19.531,28.320,24.902,50.781,0
60074.104,22.461,29.785,38.086,31.250,-2.441,0
60074.108,26.855,31.738,38.574,26.367,26.855,0
60074.112,50.781,20.996,28.320,14.160,53.223,0
60074.115,48.828,16.113,27.832,20.996,35.645,0
60074.119,17.090,24.902,38.574,32.227,46.387,0
60074.123,12.695,28.320,40.527,25.879,7.812,0
60074.127,41.504,24.414,33.203,15.137,24.414,0
60074.131,48.828,22.461,30.273,21.484,86.914,0
60074.135,21.973,31.250,38.086,31.738,38.086,0
60074.139,11.230,44.922,43.457,32.715,10.254,0
60074.143,35.645,38.574,30.273,24.414,-5.859,0
60074.147,46.875,30.762,23.438,18.066,27.832,0
60074.151,35.156,40.039,33.203,27.832,22.461,0
60074.155,17.578,46.387,38.574,30.762,1.953,0
60074.158,29.297,41.016,32.227,22.949,-11.719,0
60074.162,51.758,35.156,23.438,17.578,55.176,0
60074.166,41.016,40.527,28.809,28.809,68.359,0
60074.170,15.137,50.293,42.969,37.109,32.227,0
60074.174,20.508,48.340,38.574,27.344,9.766,0
60074.178,47.852,39.551,24.902,22.461,-7.812,0
60074.182,45.410,39.062,26.367,26.367,25.879,0
60074.186,13.672,48.340,36.621,33.203,3.418,0
60074.190,7.324,51.758,38.086,29.785,19.531,0
60074.194,32.227,41.992,26.367,15.625,63.477,0
60074.197,38.574,37.598,20.996,15.137,46.875,0
60074.201,17.090,48.340,30.762,26.855,46.387,0
60074.205,2.930,52.734,40.527,28.809,35.645,0
60074.209,23.926,42.480,33.203,16.602,20.508,0
60074.213,41.016,35.645,24.902,13.672,-3.906,0
60074.217,26.367,42.480,32.715,26.855,7.812,0
60074.221,13.672,53.711,41.504,34.180,44.922,0
60074.225,27.832,51.270,37.598,22.949,45.898,0
60074.229,46.387,41.016,30.273,19.043,5.371,0
60074.233,42.480,43.457,33.203,33.203,3.906,0
60074.237,20.508,51.270,43.945,41.016,-30.273,0
60074.240,19.531,46.875,47.363,33.203,-47.363,0
60074.244,39.551,35.645,37.109,20.508,-1.953,0
60074.248,40.527,33.691,37.109,23.438,34.180,0
60074.252,24.414,41.504,47.852,38.574,29.785,0
60074.256,16.602,46.875,45.898,39.551,47.363,0
60074.260,37.598,41.504,33.691,27.344,50.293,0
60074.264,48.340,36.133,26.367,29.785,22.949,0
60074.268,23.926,38.086,30.273,38.574,13.672,0
60074.272,9.277,44.434,38.086,33.691,41.016,0
60074.276,28.320,38.086,30.762,21.973,62.500,0
60074.280,45.410,33.691,25.391,28.809,-2.930,0
60074.283,34.668,38.574,34.180,38.086,-23.438,0
60074.287,7.812,41.992,43.457,38.086,25.879,0
60074.291,17.578,39.551,38.574,29.297,31.738,0
60074.295,46.875,32.715,26.855,18.555,-11.230,0
60074.299,41.016,35.645,30.273,26.855,-2.441,0
60074.303,15.137,46.875,39.551,29.297,52.246,0
60074.307,11.719,49.316,39.062,24.902,45.410,0
60074.311,37.109,43.457,27.344,18.555,20.508,0
60074.315,45.410,41.992,22.461,22.949,13.184,0
60074.319,23.438,51.270,31.250,33.203,-2.930,0
60074.322,8.301,60.547,38.086,30.273,31.738,0
60074.326,26.367,54.199,32.227,24.414,58.105,0
60074.330,39.062,44.922,24.414,25.879,32.227,0
60074.334,23.438,49.316,26.855,29.297,37.109,0
60074.338,8.301,60.059,34.668,35.645,12.207,0
60074.342,25.879,56.152,28.809,26.367,-25.879,0
60074.346,45.410,52.246,22.461,18.066,5.859,0
60074.350,35.645,59.082,28.809,32.715,41.992,0
60074.354,18.066,69.336,41.504,44.922,28.320,0
60074.358,25.879,68.359,43.457,38.086,7.324,0
60074.362,49.316,58.594,31.250,22.461,21.484,0
60074.365,43.945,58.105,30.273,24.902,-1.953,0
60074.369,13.672,62.988,37.598,36.133,-24.414,0
60074.373,10.742,57.617,36.133,29.297,-0.488,0
60074.377,34.668,47.363,26.855,15.137,14.648,0
60074.381,40.527,50.781,23.926,17.578,20.996,0
60074.385,18.555,61.035,29.785,27.344,20.020,0
60074.389,8.301,67.871,39.551,28.320,47.852,0
60074.393,30.273,60.059,33.203,18.066,30.273,0
60074.397,44.434,51.270,20.020,15.137,44.922,0
60074.401,23.438,58.105,28.809,23.926,87.891,0
60074.405,0.000,61.523,43.945,30.762,92.285,0
60074.408,27.832,59.082,39.062,26.855,33.691,0
60074.412,52.246,51.270,28.320,18.555,-0.488,0
60074.416,36.621,52.246,34.180,31.250,-8.789,0
60074.420,9.766,62.500,45.410,40.039,14.160,0
60074.424,21.484,57.129,43.945,31.250,64.941,0
60074.428,48.340,47.363,34.668,24.902,36.133,0
60074.432,40.039,45.898,30.273,23.926,-7.324,0
60074.436,12.207,49.316,37.598,28.320,2.441,0
60074.440,4.395,49.805,41.992,28.320,33.691,0
60074.444,32.227,40.527,32.227,20.508,26.367,0
60074.447,44.434,38.574,26.367,24.414,6.348,0
60074.451,21.484,44.922,32.227,34.180,32.715,0
60074.455,8.301,48.340,39.062,35.645,30.273,0
60074.459,28.809,47.363,34.180,21.484,65.918,0
60074.463,42.969,43.457,23.926,17.090,67.383,0
60074.467,19.531,43.945,29.297,30.762,-6.348,0
60074.471,-3.906,48.340,39.062,27.832,41.504,0
60074.475,19.531,44.922,32.715,18.555,21.973,0
60074.479,35.156,38.086,22.949,15.625,-33.203,0
60074.483,28.809,40.527,23.438,22.949,-19.043,1
60074.487,12.207,47.852,32.227,33.691,0.000,0
60074.490,17.578,45.410,34.180,28.809,26.367,0
60074.494,47.363,36.133,20.508,21.484,35.645,0
60074.498,38.086,36.621,19.531,26.855,28.809,0
60074.502,15.625,44.434,32.715,33.691,22.461,0
60074.506,17.090,47.363,34.180,33.691,55.664,0
60074.510,41.504,41.992,22.949,18.555,45.410,0
60074.514,48.340,38.574,17.578,20.020,99.121,0
60074.518,20.996,46.387,26.367,30.762,81.055,0
60074.522,3.906,53.223,36.133,24.414,-11.719,0
60074.526,27.344,44.434,28.320,12.207,-10.254,0
60074.530,44.922,41.016,18.555,12.207,2.930,0
60074.533,33.691,48.828,21.484,20.508,13.184,0
60074.537,10.742,52.734,27.832,21.973,47.852,0
60074.541,21.484,49.316,21.973,15.625,41.992,0
60074.545,44.434,42.480,14.648,9.277,21.973,0
60074.549,43.457,44.434,23.926,15.137,44.922,0
60074.553,25.391,51.270,36.621,25.391,16.602,0
60074.557,20.996,52.246,36.621,18.555,50.781,0
60074.561,45.410,42.969,24.902,5.859,79.590,0
60074.565,51.270,37.109,20.996,11.719,49.805,0
60074.569,26.367,44.434,30.273,21.973,66.406,0
60074.572,2.441,46.875,38.574,22.461,65.918,0
60074.576,17.090,33.691,26.367,15.137,37.598,0
60074.580,32.227,27.832,18.066,17.578,8.789,0
60074.584,14.648,34.180,26.367,29.785,49.316,0
60074.588,8.301,43.457,37.598,36.621,97.656,0
60074.592,31.738,39.551,34.668,29.785,58.594,0
60074.596,42.480,28.809,23.438,19.043,43.945,0
60074.600,28.320,28.320,21.484,21.973,52.246,0
60074.604,6.836,36.133,30.762,33.691,27.832,0
60074.608,20.020,38.086,35.645,34.180,-9.766,0
60074.612,49.316,31.738,24.414,19.531,-0.977,0
60074.615,41.992,30.273,20.020,18.066,12.207,0
60074.619,15.625,37.598,33.203,30.762,-27.344,0
60074.623,22.949,34.668,39.551,29.297,37.109,0
60074.627,48.340,25.879,32.715,21.484,67.871,0
60074.631,52.246,28.320,25.391,26.367,17.090,0
60074.635,32.715,32.715,29.297,36.133,30.273,0
60074.639,12.695,33.691,41.016,29.785,16.113,0
60074.643,34.180,27.832,35.645,16.602,-16.113,0
60074.647,49.805,21.973,28.320,21.484,-17.090,0
60074.651,26.367,24.902,32.227,34.668,-54.688,0
60074.655,9.277,31.738,38.574,39.062,12.695,0
60074.658,25.879,28.320,36.621,33.691,48.340,0
60074.662,44.434,17.090,28.320,22.461,13.184,0
60074.666,36.133,16.602,28.809,26.367,31.250,0
60074.670,9.766,22.461,41.992,34.668,-7.812,0
60074.674,14.648,16.602,40.527,22.461,-21.484,0
60074.678,43.457,6.836,26.855,15.137,6.348,0
60074.682,41.016,7.324,28.320,28.320,40.039,0
60074.686,19.043,13.672,42.480,45.410,25.879,0
60074.690,15.137,9.766,42.480,42.480,18.066,0
60074.694,38.086,-5.371,28.320,26.367,15.625,0
60074.697,48.828,-10.254,24.902,27.344,-20.996,0
60074.701,25.391,-6.348,35.645,44.434,-46.875,0
60074.705,7.324,-2.930,45.898,48.340,-14.648,0
60074.709,33.691,-8.789,43.457,35.156,3.906,0
60074.713,53.223,-20.508,30.273,29.297,21.973,0
60074.717,35.645,-18.555,30.762,38.574,2.441,0
60074.721,17.578,-6.836,42.969,41.504,-7.324,0
60074.725,31.738,-9.277,39.062,25.879,19.043,0
60074.729,51.758,-20.020,28.320,17.578,43.945,0
60074.733,47.852,-20.020,26.855,29.297,57.617,0
60074.737,23.926,-11.719,34.668,39.551,24.902,0
60074.740,18.066,-13.672,38.086,33.203,-7.812,0
60074.744,42.480,-20.508,26.855,25.879,27.344,0
60074.748,42.969,-17.090,22.949,29.297,18.555,0
60074.752,15.137,-6.836,31.250,30.273,-16.113,0
60074.756,8.301,-3.418,32.715,25.391,9.766,0
60074.760,29.785,-5.371,21.973,20.508,49.316,0
60074.764,41.992,-5.371,17.090,18.555,68.848,0
60074.768,20.996,0.977,23.438,26.855,70.801,0
60074.772,5.859,13.672,30.273,33.203,63.477,0
60074.776,23.926,16.602,29.785,24.414,37.598,0
60074.780,37.598,11.230,23.926,22.949,71.289,0
60074.783,28.809,17.090,26.367,33.203,36.621,0
60074.787,7.812,31.250,38.086,44.434,48.828,0
60074.791,14.160,32.715,34.668,35.156,49.805,0
60074.795,42.480,22.949,22.949,23.926,10.254,0
60074.799,41.016,30.762,24.414,34.180,65.430,0
60074.803,16.602,46.875,35.156,42.480,45.898,0
60074.807,16.113,51.270,40.527,40.527,48.828,0
60074.811,41.016,44.922,35.645,30.273,34.668,0
60074.815,44.922,39.551,27.344,28.320,9.766,0
60074.819,18.066,42.480,33.691,36.621,36.621,0
60074.822,7.324,45.898,43.945,35.156,67.383,0
60074.826,35.156,41.016,34.180,23.438,15.625,0
60074.830,45.410,36.133,24.902,22.461,54.688,0
60074.834,26.855,42.969,28.809,35.645,41.992,0
60074.838,7.812,50.781,39.062,40.527,-25.879,0
60074.842,27.344,45.898,35.156,31.738,13.184,0
60074.846,53.223,41.504,26.367,27.832,42.480,0
60074.850,42.969,50.781,32.227,39.062,50.293,0
60074.854,25.879,61.035,40.039,44.922,-3.418,0
60074.858,34.180,57.617,38.574,38.086,25.391,0
60074.862,60.059,49.805,29.297,34.668,63.477,0
60074.865,54.199,49.805,27.344,43.945,36.133,0
60074.869,22.461,60.547,41.992,53.711,45.898,0
60074.873,23.438,62.500,48.828,47.852,86.426,0
60074.877,43.945,49.805,40.527,39.062,34.180,0
60074.881,42.480,45.898,32.715,43.945,-48.340,0
60074.885,22.949,52.734,37.109,47.852,-24.414,0
60074.889,6.836,58.105,44.922,45.410,1.465,0
60074.893,30.762,52.734,34.180,32.227,22.949,0
60074.897,53.711,48.828,20.996,27.344,14.648,0
60074.901,33.203,56.152,26.367,42.480,-0.977,0
60074.905,9.277,62.500,37.109,47.363,21.973,0
60074.908,23.438,58.594,34.180,31.738,49.316,0
60074.912,50.293,49.805,20.508,20.020,35.156,0
60074.916,39.062,50.293,20.508,28.809,50.293,0
60074.920,11.230,57.617,34.668,39.551,43.457,0
60074.924,19.531,56.641,37.598,33.203,39.551,0
60074.928,50.293,48.340,27.832,22.949,44.922,0
60074.932,50.293,46.387,25.879,31.738,0.488,0
60074.936,24.902,54.688,38.574,45.898,-25.391,0
60074.940,15.625,61.523,44.434,44.434,-45.410,0
60074.944,36.621,53.711,29.297,35.645,-39.551,0
60074.947,47.852,49.316,19.531,34.180,12.695,0
60074.951,34.180,57.129,29.297,36.621,22.461,0
60074.955,21.484,60.059,36.621,36.621,12.207,0
60074.959,36.133,56.152,31.250,30.762,37.109,0
60074.963,55.664,49.316,22.461,29.297,0.977,0
60074.967,44.922,52.246,27.344,43.945,28.320,0
60074.971,23.926,59.570,39.062,45.898,39.551,0
60074.975,31.250,52.246,35.645,31.738,2.930,0
60074.979,47.363,41.016,25.879,23.926,20.996,0
60074.983,34.180,40.527,27.832,27.832,8.789,0
60074.987,6.836,53.223,37.109,40.527,3.906,0
60074.990,16.602,55.664,41.504,34.668,-12.695,0
60074.994,47.852,41.992,30.762,18.555,-2.930,0
60074.998,48.340,39.062,23.438,26.855,64.453,0
60075.002,25.391,49.316,35.156,41.016,55.664,0
60075.006,14.648,52.246,41.992,35.156,41.016,0
60075.010,33.691,43.945,29.785,23.438,49.805,0
60075.014,49.805,41.016,21.973,20.508,51.758,0
60075.018,30.273,47.852,33.203,35.645,39.062,0
60075.022,5.371,54.688,42.480,39.551,20.020,0
60075.026,27.344,47.363,32.715,25.879,60.547,0
60075.030,47.852,40.039,26.855,21.973,23.926,0
60075.033,30.762,39.551,33.203,27.832,4.395,0
60075.037,4.395,44.922,41.504,35.645,30.762,0
60075.041,14.648,44.922,37.598,26.855,-25.391,0
60075.045,42.969,36.133,23.926,14.160,33.691,0
60075.049,35.645,35.156,24.902,22.461,72.266,0
60075.053,11.230,40.527,31.738,30.273,51.270,0
60075.057,16.602,37.109,36.621,26.855,59.082,0
60075.061,41.992,20.996,37.109,22.461,44.922,0
60075.065,43.945,16.602,31.250,26.367,75.195,0
60075.069,18.066,26.855,37.109,36.621,73.730,0
60075.072,3.418,29.785,42.969,36.133,23.926,0
60075.076,26.855,20.996,33.691,25.391,65.430,0
60075.080,42.969,13.184,26.367,27.344,82.031,0
60075.084,28.809,16.113,32.715,35.645,66.895,0
60075.088,14.160,23.438,45.898,41.504,63.477,0
60075.092,33.203,18.066,42.480,29.297,37.598,0
60075.096,50.781,4.883,27.832,19.531,54.688,0
60075.100,34.668,2.930,29.297,34.668,60.059,0
60075.104,6.348,12.695,35.645,40.039,80.078,0
60075.108,14.160,14.648,34.668,28.809,85.938,0
60075.112,40.527,1.465,25.391,18.066,13.672,0
60075.115,40.039,-8.789,24.414,22.461,13.672,0
60075.119,12.207,-4.883,32.227,31.738,66.895,0
60075.123,8.301,-2.930,35.156,29.297,36.621,0
60075.127,39.551,-16.602,33.203,18.066,44.922,0
60075.131,47.852,-23.926,29.297,16.113,23.926,0
60075.135,23.438,-16.113,28.809,24.902,1.465,0
60075.139,4.395,-16.113,38.086,30.762,0.488,0
60075.143,24.902,-29.785,37.598,22.949,-11.719,2
60075.147,37.109,-35.645,31.250,21.484,-26.367,0
60075.151,21.973,-32.227,34.180,30.762,5.371,0
60075.155,8.789,-26.855,42.480,34.180,13.672,0
60075.158,18.066,-32.715,41.992,28.320,4.395,0
60075.162,44.434,-39.062,32.227,22.461,49.316,0
60075.166,39.062,-34.180,29.785,29.297,42.480,0
60075.170,14.648,-24.902,43.945,36.133,33.691,0
60075.174,22.461,-21.973,43.945,27.832,73.730,0
60075.178,52.734,-26.367,26.855,16.113,48.340,0
60075.182,48.340,-24.902,23.926,19.531,-7.324,0
60075.186,18.555,-12.695,34.180,30.762,-36.621,0
60075.190,12.207,-3.906,42.480,31.250,-22.461,0
60075.194,38.086,-7.324,36.133,17.578,-44.434,0
60075.197,50.781,-9.766,22.949,14.648,-62.500,0
60075.201,25.391,-3.906,27.344,28.809,-12.695,0
60075.205,2.930,5.371,35.645,26.855,25.391,0
60075.209,29.297,8.301,25.879,16.113,-0.488,0
60075.213,50.781,7.324,12.695,20.996,-3.906,0
60075.217,32.715,15.137,21.484,31.250,15.137,0
60075.221,7.324,21.484,34.668,36.621,36.621,0
60075.225,17.090,18.066,28.320,19.531,52.246,0
60075.229,38.086,15.137,21.484,4.883,34.180,0
60075.233,30.762,18.555,24.414,17.090,33.691,0
60075.237,9.277,24.414,30.273,24.414,36.133,0
60075.240,6.836,25.879,36.621,22.461,44.434,0
60075.244,30.762,21.484,32.715,19.043,14.160,0
60075.248,37.109,24.414,28.809,23.438,-10.254,0
60075.252,23.438,36.133,29.297,39.062,38.086,0
60075.256,22.949,43.457,36.133,36.621,20.996,0
60075.260,44.434,37.598,33.691,16.113,14.648,0
60075.264,51.270,33.691,24.902,18.066,26.367,0
60075.268,25.879,37.598,36.133,31.738,0.000,0
60075.272,7.324,41.504,46.875,28.809,-4.883,0
60075.276,26.367,37.598,34.668,16.602,-0.488,0
60075.280,45.898,30.273,19.043,12.695,14.160,0
60075.283,35.645,36.621,23.438,22.461,9.766,0
60075.287,10.742,47.363,33.691,31.738,5.371,0
60075.291,21.973,42.969,28.320,25.391,89.355,0
60075.295,50.293,34.668,20.508,20.996,46.875,0
60075.299,43.945,33.691,22.949,26.855,-19.531,0
60075.303,20.020,41.504,32.715,33.691,-10.254,0
60075.307,22.949,43.457,34.668,36.621,-20.996,0
60075.311,50.293,35.156,26.855,23.438,-5.859,0
60075.315,45.898,31.250,27.344,24.414,24.902,0
60075.319,20.508,41.016,34.180,38.086,2.930,0
60075.322,14.160,48.828,37.109,36.133,1.465,0
60075.326,38.086,41.992,33.691,27.832,-16.602,0
60075.330,54.199,39.062,25.391,26.855,-30.762,0
60075.334,37.598,40.527,26.367,33.203,62.012,0
60075.338,11.719,41.504,34.180,31.250,98.633,0
60075.342,25.391,42.969,29.785,20.996,54.688,0
60075.346,46.875,39.062,21.973,20.020,-17.578,0
60075.350,29.297,41.016,18.555,23.926,24.902,0
60075.354,1.953,50.781,30.762,24.414,62.500,0
60075.358,13.184,51.758,41.016,20.020,25.879,0
60075.362,42.969,41.016,32.227,12.207,65.430,0
60075.365,37.598,37.109,28.320,23.438,43.945,0
60075.369,8.789,46.387,38.574,35.156,-8.789,0
60075.373,2.930,47.363,40.039,27.344,48.828,0
60075.377,27.344,34.668,24.902,14.160,16.602,0
60075.381,39.062,34.668,20.508,16.113,-21.484,0
60075.385,21.484,44.434,28.320,25.879,8.301,0
60075.389,10.742,49.316,35.645,29.297,1.465,0
60075.393,30.273,44.922,31.738,23.438,-20.020,0
60075.397,48.340,38.086,25.391,22.461,1.953,0
60075.401,38.574,38.574,30.762,36.133,36.621,0
60075.405,19.043,46.387,38.574,46.387,30.762,0
60075.408,27.344,45.898,36.133,38.574,-24.902,0
60075.412,44.922,35.156,25.391,25.391,11.230,0
60075.416,38.574,35.156,23.438,31.738,50.781,0
60075.420,20.508,47.852,38.574,45.898,4.883,0
60075.424,24.902,49.316,40.039,37.598,62.012,0
60075.428,48.828,42.969,29.785,27.344,68.848,0
60075.432,42.480,41.504,27.344,30.762,16.113,0
60075.436,12.695,48.340,35.645,36.133,41.992,0
60075.440,10.254,57.129,41.992,32.715,40.527,0
60075.444,35.156,50.293,29.785,21.484,45.410,0
60075.447,44.434,46.387,21.973,23.438,39.062,0
60075.451,24.902,56.152,31.250,34.180,41.992,0
60075.455,13.672,60.547,38.086,36.133,49.316,0
60075.459,31.250,52.734,30.762,24.414,41.992,0
60075.463,46.875,49.805,19.531,22.949,64.941,0
60075.467,34.180,58.594,27.832,40.527,31.738,0
60075.471,12.695,71.289,44.922,44.922,0.000,0
60075.475,29.297,65.918,40.527,30.762,2.930,0
60075.479,54.199,55.664,26.855,24.902,-17.090,0
60075.483,36.133,58.105,24.902,30.273,-11.230,0
60075.487,3.418,65.918,36.133,33.691,-19.043,0
60075.490,5.859,66.406,37.109,25.391,-14.160,0
60075.494,34.668,59.082,20.996,15.137,-7.812,0
60075.498,32.227,59.082,19.043,18.555,-33.203,0
60075.502,8.789,66.895,32.715,24.414,-19.531,0
60075.506,6.348,70.312,37.109,22.461,-1.465,0
60075.510,30.273,61.035,29.785,11.230,58.594,0
60075.514,43.457,51.758,26.367,14.160,47.363,0
60075.518,18.555,56.641,30.273,27.344,25.879,0
60075.522,-0.488,65.430,37.109,25.391,85.938,0
60075.526,26.855,62.012,36.621,22.949,79.590,0
60075.530,49.805,56.152,28.320,24.414,3.906,0
60075.533,32.715,59.082,29.785,30.273,28.320,0
60075.537,7.324,66.406,41.992,37.598,94.238,0
60075.541,16.602,64.941,43.457,30.273,75.684,0
60075.545,38.574,58.105,33.203,24.414,66.895,0
60075.549,32.227,57.129,34.668,34.180,16.113,0
60075.553,10.254,63.965,46.875,39.062,22.949,0
60075.557,7.324,68.359,48.828,31.738,66.406,0
60075.561,32.227,61.035,38.574,23.438,33.203,0
60075.565,41.016,56.152,32.227,25.879,53.711,0
60075.569,24.414,67.871,43.945,40.527,50.781,0
60075.572,18.066,75.684,49.805,41.016,9.277,0
60075.576,36.621,68.848,41.992,23.926,23.438,0
60075.580,48.828,63.477,34.180,24.902,33.203,0
60075.584,32.227,65.918,32.715,37.598,8.301,0
60075.588,12.695,69.824,39.062,38.574,0.000,0
60075.592,23.926,64.941,36.621,24.414,31.250,0
60075.596,50.293,59.570,33.203,25.391,23.926,0
60075.600,49.805,63.477,36.133,38.574,53.711,0
60075.604,27.344,71.777,41.992,42.480,126.465,0
60075.608,27.832,76.172,45.410,43.945,88.867,0
60075.612,49.805,65.918,35.156,36.621,-24.414,0
60075.615,50.781,60.059,29.297,40.527,-4.883,0
60075.619,22.949,70.312,37.598,51.270,81.055,0
60075.623,14.648,71.289,41.504,45.410,62.988,0
60075.627,38.086,61.035,32.715,38.574,66.895,0
60075.631,52.734,58.594,26.855,38.574,58.105,0
60075.635,40.527,71.777,34.668,44.922,48.828,0
60075.639,25.879,82.031,42.480,44.434,21.484,0
60075.643,37.598,70.801,36.621,32.715,-14.648,0
60075.647,51.270,62.012,31.250,30.762,-10.742,0
60075.651,41.016,70.312,36.133,35.645,-24.902,0
60075.655,18.555,75.684,41.016,35.645,-13.184,0
60075.658,28.809,67.871,37.109,27.344,-7.812,0
60075.662,57.129,59.082,30.762,22.949,-28.809,0
60075.666,41.504,64.941,32.227,33.691,-2.930,0
60075.670,14.648,74.707,42.969,42.480,36.133,0
60075.674,23.926,73.730,43.945,40.039,7.324,0
60075.678,49.316,61.035,36.133,35.645,-41.992,0
60075.682,45.410,54.688,35.645,36.621,2.930,0
60075.686,21.973,65.918,43.945,43.457,19.531,0
60075.690,23.926,71.777,46.387,42.480,2.441,0
60075.694,46.875,63.965,34.668,28.809,32.715,0
60075.697,46.387,58.594,28.320,31.250,49.805,0
60075.701,24.414,61.523,32.227,42.969,11.230,0
60075.705,14.648,68.848,37.598,43.945,-2.441,0
60075.709,37.598,68.848,31.738,40.527,16.602,0
60075.713,59.570,62.012,21.484,36.621,-3.418,0
60075.717,43.945,63.965,32.715,44.434,17.090,0
60075.721,20.508,72.266,47.363,50.293,-22.949,0
60075.725,32.715,69.336,43.457,40.039,-13.672,0
60075.729,54.688,57.617,30.762,33.203,18.555,0
60075.733,52.734,57.617,32.227,38.086,25.879,0
60075.737,30.273,59.570,40.527,41.992,17.578,0
60075.740,24.414,55.664,41.504,35.645,11.719,0
60075.744,46.387,44.922,31.738,25.879,3.906,0
60075.748,50.781,41.992,33.691,30.273,-23.438,0
60075.752,26.855,50.781,44.434,41.992,-1.465,0
60075.756,18.555,53.711,41.504,35.156,24.902,0
60075.760,42.480,45.898,31.250,21.973,0.488,0
60075.764,53.223,36.621,26.855,21.484,11.230,0
60075.768,33.203,40.039,31.250,32.715,60.059,0
60075.772,9.766,49.316,40.527,39.551,34.180,0
60075.776,29.785,43.457,37.598,30.273,28.809,0
60075.780,55.664,34.180,27.832,24.902,11.230,0
60075.783,41.016,39.062,29.297,33.691,-38.086,0
60075.787,6.348,49.805,40.039,37.109,29.297,0
60075.791,12.207,45.410,45.410,30.762,68.359,0
60075.795,38.574,33.691,37.598,22.949,38.574,0
60075.799,36.621,29.785,29.785,26.855,43.945,0
60075.803,11.719,33.691,34.668,34.180,43.945,0
60075.807,8.301,35.156,44.434,28.320,38.574,0
60075.811,40.039,25.879,37.109,22.461,20.996,0
60075.815,49.805,20.020,28.809,23.438,-32.715,0
60075.819,24.414,26.367,39.062,29.785,48.828,0
60075.822,12.207,34.180,47.852,32.715,44.922,0
60075.826,33.203,27.344,39.062,22.461,-8.789,0
60075.830,50.293,19.043,30.762,19.531,23.438,0
60075.834,36.133,24.902,28.809,33.203,18.066,1
60075.838,18.066,36.133,27.344,37.109,31.250,0
60075.842,27.832,34.668,27.344,23.438,62.988,0
60075.846,47.852,21.973,24.414,19.531,32.715,0
60075.850,44.434,23.438,28.320,27.832,20.020,0
60075.854,17.090,33.203,41.016,38.086,35.645,0
60075.858,18.555,34.180,44.922,36.133,2.930,0
60075.862,41.992,23.926,34.668,23.438,34.668,0
60075.865,42.480,21.484,31.250,21.973,49.805,0
60075.869,23.438,31.250,38.574,36.133,-35.156,0
60075.873,21.973,35.645,43.945,37.598,-16.113,0
60075.877,43.945,29.297,36.621,26.367,19.531,0
60075.881,58.105,28.320,30.273,31.250,12.695,0
60075.885,39.062,33.691,35.645,39.062,47.363,0
60075.889,20.020,44.434,46.875,38.086,50.293,0
60075.893,43.457,39.062,39.551,26.367,2.930,0
60075.897,60.059,24.902,24.902,20.996,-11.230,0
60075.901,42.480,32.227,30.273,31.250,58.105,0
60075.905,19.043,44.434,41.504,38.086,88.379,0
60075.908,34.180,42.480,40.039,33.203,49.316,0
60075.912,60.059,31.250,30.762,24.414,11.230,0
60075.916,52.246,33.203,28.809,27.832,-3.418,0
60075.920,26.855,44.922,36.621,37.109,-11.230,0
60075.924,23.926,42.480,44.434,32.227,4.395,0
60075.928,47.363,33.203,39.062,19.531,36.621,0
60075.932,50.781,33.691,35.156,20.020,3.418,0
60075.936,23.926,39.062,38.574,24.414,-41.992,0
60075.940,14.648,39.551,39.551,20.020,34.668,0
60075.944,35.156,29.785,30.273,11.719,38.086,0
60075.947,37.598,20.996,22.461,15.625,0.000,0
60075.951,18.555,24.414,31.738,26.367,38.574,0
60075.955,3.906,34.180,41.992,27.344,5.371,0
60075.959,26.855,31.250,35.645,16.113,-9.277,0
60075.963,50.293,22.461,25.879,12.695,10.742,0
60075.967,34.180,27.832,29.785,23.438,-1.465,0
60075.971,11.230,39.551,41.016,34.180,-41.992,0
60075.975,23.438,29.785,36.621,25.391,1.465,0
60075.979,42.969,16.113,25.391,11.719,39.551,0
60075.983,41.016,14.160,25.391,19.531,13.184,0
60075.987,16.602,17.090,31.250,24.902,32.715,0
60075.990,17.090,14.648,32.227,18.066,-15.625,0
60075.994,44.434,3.906,24.414,17.090,-39.062,0
60075.998,45.410,-0.977,21.973,21.973,-3.906,0
60076.002,21.484,2.930,32.227,32.715,5.859,0
60076.006,14.648,4.883,39.062,36.133,25.879,0
60076.010,40.527,-2.441,30.273,22.461,39.062,0
60076.014,55.664,-8.301,22.949,24.414,22.949,0
60076.018,38.574,-6.348,26.855,36.133,28.320,0
60076.022,18.555,-3.906,40.039,37.598,59.570,0
60076.026,26.855,-8.789,40.527,26.855,57.129,0
60076.030,41.992,-14.160,34.668,21.973,14.648,0
60076.033,32.715,-13.672,36.621,26.855,-9.766,0
60076.037,13.184,-8.301,44.434,28.809,89.355,0
60076.041,24.414,-9.766,44.434,26.367,126.953,0
60076.045,55.664,-18.066,36.133,21.973,66.406,0
60076.049,56.641,-20.996,37.109,30.762,0.488,0
60076.053,25.391,-19.531,43.457,37.109,-5.371,0
60076.057,12.207,-22.461,40.527,26.855,51.758,0
60076.061,30.273,-31.250,31.250,17.090,43.457,0
60076.065,39.551,-35.156,23.438,15.137,53.711,0
60076.069,18.555,-25.879,28.809,26.367,26.367,0
60076.072,4.395,-23.926,36.621,26.367,10.742,0
60076.076,24.902,-39.062,32.227,13.672,74.707,0
60076.080,35.156,-42.480,28.809,13.184,58.105,0
60076.084,18.066,-32.227,30.762,21.484,65.918,0
60076.088,-2.441,-20.996,40.039,27.832,50.781,0
60076.092,17.090,-25.879,33.691,14.648,40.527,0
60076.096,44.434,-36.133,20.996,4.883,27.832,0
60076.100,35.156,-35.156,26.855,18.555,13.184,0
60076.104,10.742,-30.273,39.551,28.320,58.594,0
60076.108,8.301,-28.809,43.457,25.391,45.898,0
60076.112,31.250,-34.180,32.715,20.996,17.090,0
60076.115,30.273,-34.668,20.508,19.043,18.066,0
60076.119,4.883,-25.879,30.762,26.367,49.316,0
60076.123,3.906,-24.414,42.480,25.879,38.086,0
60076.127,34.668,-34.180,33.203,13.672,40.527,0
60076.131,49.316,-36.133,24.902,18.066,39.062,0
60076.135,26.855,-27.344,31.250,26.367,54.688,0
60076.139,7.324,-16.113,41.504,27.832,68.848,0
60076.143,21.973,-19.043,33.691,19.043,31.250,0
60076.147,37.109,-22.461,21.484,15.625,20.996,0
60076.151,27.344,-13.672,24.902,23.438,36.621,0
60076.155,10.254,-0.488,36.133,26.367,26.367,0
60076.158,25.879,2.930,32.715,20.996,5.371,0
60076.162,52.246,-3.906,22.949,16.602,0.977,0
60076.166,47.363,0.977,28.809,24.902,-14.160,0
60076.170,27.832,15.625,38.574,36.621,10.742,0
60076.174,31.250,19.043,38.086,32.227,7.812,0
60076.178,50.293,9.277,26.367,19.043,17.090,0
60076.182,51.270,12.207,22.461,20.020,8.301,0
60076.186,24.902,23.438,32.715,33.203,33.691,0
60076.190,17.578,29.297,36.621,38.086,29.297,0
60076.194,41.016,24.902,26.367,25.879,15.137,0
60076.197,50.781,21.484,23.438,28.320,62.500,0
60076.201,35.645,32.227,36.133,39.551,2.441,0
60076.205,27.832,41.504,49.316,48.828,-25.391,0
60076.209,44.922,37.598,41.992,41.504,37.109,0
60076.213,59.082,32.227,26.855,28.320,20.508,0
60076.217,49.316,37.109,28.320,40.039,26.855,0
60076.221,22.461,49.316,40.527,42.969,18.066,0
60076.225,30.762,49.805,37.598,30.762,-10.254,0
60076.229,54.199,44.434,29.297,26.367,14.648,0
60076.233,49.316,46.875,30.762,32.715,-14.648,0
60076.237,33.203,55.664,35.156,40.527,-0.977,0
60076.240,32.715,62.012,40.039,33.203,21.973,0
60076.244,55.176,60.547,32.715,22.461,-10.254,0
60076.248,52.734,62.012,25.879,30.273,25.879,0
60076.252,26.855,63.477,35.645,33.203,14.648,0
60076.256,19.043,64.941,38.574,24.902,-31.738,0
60076.260,31.738,60.547,25.391,14.160,32.715,0
60076.264,41.992,56.152,23.438,19.043,63.965,0
60076.268,26.855,62.012,36.133,36.133,32.715,0
60076.272,10.254,66.406,43.457,42.969,39.551,0
60076.276,29.297,61.523,39.062,28.320,11.230,0
60076.280,48.828,55.176,28.320,20.020,22.461,0
60076.283,38.574,57.617,30.273,33.691,48.828,0
60076.287,16.602,63.965,45.410,38.574,59.082,0
60076.291,25.391,60.547,43.945,32.715,40.527,0
60076.295,51.758,52.734,27.344,25.391,8.301,0
60076.299,50.293,56.152,26.855,25.391,1.465,0
60076.303,24.902,63.965,38.574,33.691,-21.973,0
60076.307,17.090,63.965,42.480,33.691,-6.348,0
60076.311,41.992,56.641,35.156,27.344,-16.602,0
60076.315,53.711,48.340,27.832,26.367,-2.441,0
60076.319,31.250,53.223,32.715,32.715,79.102,0
60076.322,17.090,59.082,44.434,34.668,75.684,0
60076.326,30.762,49.316,37.109,20.020,56.152,0
60076.330,41.016,41.992,19.043,13.184,30.273,0
60076.334,30.762,48.340,23.926,23.438,40.039,0
60076.338,8.301,57.617,40.527,26.855,26.855,0
60076.342,19.043,49.805,34.180,13.672,52.246,0
60076.346,48.828,36.621,20.996,10.742,65.430,0
60076.350,43.457,41.504,22.461,20.508,5.859,0
60076.354,12.695,52.734,35.645,20.996,40.527,0
60076.358,11.719,49.805,36.621,16.602,33.691,0
60076.362,36.621,41.016,21.484,12.207,41.016,0
60076.365,37.598,41.992,20.996,17.578,60.547,0
60076.369,18.555,51.758,33.691,32.227,19.531,0
60076.373,12.695,57.129,38.574,30.762,29.785,0
60076.377,39.551,53.223,30.273,13.184,95.215,0
60076.381,55.176,50.293,22.461,19.043,30.762,0
60076.385,38.574,56.152,27.344,29.297,-24.902,0
60076.389,12.695,63.477,38.086,24.902,14.648,0
60076.393,27.832,53.711,31.250,13.672,57.617,0
60076.397,51.270,41.992,20.020,5.859,120.605,0
60076.401,35.645,46.387,23.926,19.531,92.773,0
60076.405,13.672,54.688,39.551,30.273,30.273,2
60076.408,29.297,49.805,44.922,24.902,41.016,0
60076.412,56.641,37.598,32.715,18.555,61.523,0
60076.416,48.340,40.527,31.250,21.484,58.105,0
60076.420,22.949,52.246,41.992,34.668,40.039,0
60076.424,22.461,48.340,43.945,26.855,38.086,0
60076.428,41.992,40.039,37.109,12.207,-17.578,0
60076.432,43.945,39.551,31.250,21.484,-41.016,0
60076.436,18.066,44.922,34.668,33.691,65.430,0
60076.440,13.672,50.781,45.410,32.715,58.105,0
60076.444,41.504,45.410,37.109,21.484,-4.395,0
60076.447,48.828,40.039,29.297,21.973,-21.973,0
60076.451,29.785,48.340,39.062,29.297,33.203,0
60076.455,14.160,53.711,45.410,26.855,73.730,0
60076.459,35.645,46.875,39.062,19.043,74.707,0
60076.463,57.129,40.039,29.297,22.949,49.316,0
60076.467,39.551,42.969,32.227,33.691,19.531,0
60076.471,12.695,50.293,41.992,35.645,-4.883,0
60076.475,17.578,47.852,35.156,28.320,-66.406,0
60076.479,41.992,41.016,23.438,18.555,-23.926,0
60076.483,41.504,43.945,29.297,22.461,51.270,0
60076.487,18.066,54.199,43.945,36.133,16.602,0
60076.490,22.949,58.105,48.340,33.203,7.812,0
60076.494,49.805,47.852,35.156,14.160,45.898,0
60076.498,50.293,41.992,26.855,17.578,39.062,0
60076.502,21.973,49.316,35.156,32.227,51.270,0
60076.506,8.301,57.129,46.875,31.250,8.789,0
60076.510,31.738,52.734,45.898,28.320,-4.395,0
60076.514,45.898,44.434,33.203,26.855,68.359,0
60076.518,27.832,43.945,32.227,28.809,51.758,0
60076.522,12.695,49.805,41.992,30.762,15.137,0
60076.526,36.133,52.734,42.969,29.297,-3.906,0
60076.530,59.082,50.781,28.809,31.738,-11.719,0
60076.533,44.922,52.246,25.879,35.156,54.199,0
60076.537,19.043,59.570,38.086,37.598,20.996,0
60076.541,23.926,60.059,39.062,27.344,1.953,0
60076.545,51.758,52.734,33.691,24.414,34.180,0
60076.549,54.199,54.199,35.645,36.621,39.551,0
60076.553,22.949,57.617,41.992,41.504,0.488,0
60076.557,16.602,56.641,43.457,35.156,-4.395,0
60076.561,44.434,49.805,27.344,25.391,34.180,0
60076.565,50.293,47.852,19.531,28.809,33.203,0
60076.569,30.273,58.105,34.668,35.645,34.668,0
60076.572,16.602,60.059,46.387,37.109,58.105,0
60076.576,36.621,51.270,39.551,27.832,62.012,0
60076.580,53.711,48.828,26.855,21.484,24.902,0
60076.584,34.180,54.688,27.832,23.438,3.906,0
60076.588,8.789,60.059,38.086,27.344,-3.906,0
60076.592,26.367,55.176,31.738,19.531,35.645,0
60076.596,53.711,47.363,15.625,14.160,6.348,0
60076.600,41.504,49.316,18.555,26.855,21.973,0
60076.604,12.695,56.152,27.344,33.691,70.801,0
60076.608,16.602,52.246,30.273,28.320,40.527,0
60076.612,43.945,40.039,23.926,17.090,3.906,0
60076.615,52.734,39.062,23.926,22.461,25.391,0
60076.619,30.273,49.316,34.668,42.480,91.797,0
60076.623,25.391,50.781,42.969,39.551,28.809,0
60076.627,50.781,42.480,36.133,28.320,-2.930,0
60076.631,58.105,41.016,27.344,26.855,42.969,0
60076.635,39.551,42.969,35.645,32.227,65.918,0
60076.639,21.973,47.852,47.363,37.109,14.648,0
60076.643,38.574,43.457,40.039,26.855,8.789,0
60076.647,53.223,32.227,32.715,22.461,18.555,0
60076.651,41.016,35.156,39.551,36.133,50.293,0
60076.655,20.020,43.945,46.387,40.527,55.176,0
60076.658,32.227,39.551,44.434,27.832,35.645,0
60076.662,59.082,31.738,35.156,20.996,61.523,0
60076.666,50.781,34.180,31.738,32.227,92.285,0
60076.670,20.020,43.457,35.645,44.434,85.938,0
60076.674,19.043,43.945,38.086,35.645,53.711,0
60076.678,49.805,33.691,31.250,30.762,20.996,0
60076.682,54.199,31.738,31.250,41.992,-26.855,0
60076.686,31.738,38.086,37.598,48.340,-6.348,0
60076.690,26.855,42.969,41.016,45.410,17.578,0
60076.694,50.781,34.180,32.227,30.273,42.480,0
60076.697,59.570,24.902,24.902,30.273,86.914,0
60076.701,39.062,28.809,34.180,42.480,25.879,0
60076.705,22.461,35.645,39.062,41.992,-16.113,0
60076.709,42.480,32.715,32.715,32.227,26.367,0
60076.713,59.570,29.297,25.879,26.855,21.973,0
60076.717,44.434,34.668,28.809,34.668,-11.719,0
60076.721,25.879,39.551,36.133,40.527,10.742,0
60076.725,33.691,33.691,33.203,33.203,6.836,0
60076.729,50.293,23.438,25.391,21.484,45.410,0
60076.733,42.969,25.391,21.973,24.902,40.527,0
60076.737,24.902,36.133,29.297,37.109,20.020,0
60076.740,24.414,39.062,36.133,35.645,4.883,0
60076.744,49.805,27.344,26.367,22.949,13.672,0
60076.748,59.082,23.926,22.461,31.738,63.477,0
60076.752,31.250,32.715,29.297,41.504,30.762,0
60076.756,16.602,38.574,36.133,35.156,14.160,0
60076.760,41.504,28.809,30.762,28.320,-8.301,0
60076.764,55.176,17.578,22.949,24.902,-39.551,0
60076.768,40.039,26.367,31.250,33.691,-14.160,0
60076.772,17.578,37.109,41.504,39.062,-18.066,0
60076.776,22.949,24.902,25.879,26.855,0.488,0
60076.780,42.480,13.184,15.625,16.602,14.160,0
60076.783,35.645,18.555,25.879,25.879,-24.414,0
60076.787,14.160,25.879,40.039,40.527,15.625,0
60076.791,22.949,23.438,43.945,31.250,35.156,0
60076.795,45.898,14.648,31.738,17.090,10.742,0
60076.799,40.527,11.230,28.320,20.996,34.180,0
60076.803,16.113,20.996,39.551,34.668,37.598,0
60076.807,10.254,24.414,45.410,33.691,-8.301,0
60076.811,39.062,14.160,33.691,20.508,16.602,0
60076.815,52.246,10.254,28.320,23.438,45.410,0
60076.819,23.438,14.648,36.133,41.016,41.016,0
60076.822,6.348,17.090,40.527,41.992,29.297,0
60076.826,33.691,10.742,34.668,21.484,37.109,0
60076.830,60.547,11.719,25.879,23.438,69.336,0
60076.834,54.688,24.414,30.762,39.551,19.043,0
60076.838,24.902,29.785,39.062,44.434,39.551,0
60076.842,28.320,26.367,36.621,38.574,64.941,0
60076.846,49.316,19.531,27.344,32.227,13.672,0
60076.850,38.574,17.578,27.832,39.551,28.809,0
60076.854,14.648,24.414,41.504,50.293,9.766,0
60076.858,18.066,24.414,43.457,44.434,9.766,0
60076.862,44.434,17.578,28.320,33.203,33.691,0
60076.865,48.828,17.090,20.996,32.715,17.090,0
60076.869,21.973,23.926,33.691,40.039,79.102,0
60076.873,16.602,27.344,35.645,38.086,82.520,0
60076.877,42.969,20.508,17.578,23.438,-13.672,0
60076.881,48.828,20.996,13.184,27.344,-37.598,0
60076.885,27.344,32.227,23.438,38.086,1.465,0
60076.889,12.207,40.039,37.598,41.016,33.691,0
60076.893,33.691,33.203,34.668,32.715,-3.418,0
60076.897,55.176,23.926,25.391,28.809,-13.184,0
60076.901,41.016,26.855,27.832,37.109,15.625,0
60076.905,14.160,35.645,37.598,45.410,-5.371,0
60076.908,28.809,34.668,40.039,41.016,-16.113,0
60076.912,55.176,27.344,29.297,30.762,-32.715,0
60076.916,42.969,25.391,26.855,35.645,-33.203,0
60076.920,14.160,34.180,36.133,40.039,31.250,0
60076.924,16.113,35.645,35.645,34.180,43.457,0
60076.928,44.434,27.832,24.902,27.832,43.945,0
60076.932,48.340,25.879,20.996,27.344,44.434,0
60076.936,24.414,31.250,27.832,32.227,36.621,0
60076.940,15.137,32.227,37.109,34.668,86.426,0
60076.944,36.621,24.902,28.809,24.902,5.859,0
60076.947,50.781,24.414,19.043,20.996,-30.762,0
60076.951,27.832,31.738,26.855,30.762,55.176,2
60076.955,0.000,36.133,39.062,31.250,61.523,0
60076.959,14.648,28.320,35.156,22.949,23.438,0
60076.963,34.180,15.137,14.648,13.672,29.297,0
60076.967,22.949,18.066,14.648,21.973,12.695,0
60076.971,3.418,28.320,35.645,24.902,-20.020,0
60076.975,11.230,21.973,39.551,16.602,-8.301,0
60076.979,27.344,10.742,26.367,14.160,30.762,0
60076.983,25.391,11.230,25.391,18.555,51.270,0
60076.987,0.488,20.508,37.109,27.344,59.570,0
60076.990,0.977,24.414,39.551,23.926,70.312,0
60076.994,37.109,13.184,29.297,14.648,59.570,0
60076.998,42.969,10.742,25.391,23.438,34.668,0
60077.002,22.949,24.414,32.715,36.621,25.391,0
60077.006,12.207,30.273,37.109,37.598,41.992,0
60077.010,32.715,26.367,32.715,28.320,-5.859,0
60077.014,54.199,23.438,21.484,24.902,5.371,0
60077.018,36.133,26.367,21.973,35.645,50.293,0
60077.022,15.625,32.227,33.203,45.410,-6.836,0
60077.026,33.691,28.809,28.809,31.250,-3.906,0
60077.030,55.664,22.949,20.020,20.020,46.387,0
60077.033,43.945,25.391,26.367,33.203,35.645,0
60077.037,24.902,36.621,40.039,41.016,48.340,0
60077.041,26.367,38.086,39.062,32.715,33.203,0
60077.045,45.898,25.879,28.320,27.344,30.273,0
60077.049,46.875,20.996,22.461,36.621,123.047,0
60077.053,23.438,29.785,32.227,44.434,57.617,0
60077.057,18.066,35.156,40.527,35.645,13.184,0
60077.061,44.434,29.297,31.738,28.809,61.523,0
60077.065,54.688,23.926,26.855,31.738,31.738,0
60077.069,32.227,30.762,33.203,35.156,38.086,0
60077.072,16.113,37.109,39.062,39.551,67.383,0
60077.076,36.621,32.227,33.203,33.691,45.410,0
60077.080,52.734,23.438,21.484,26.855,-12.207,0
60077.084,38.086,27.344,23.438,37.109,11.230,0
60077.088,17.090,38.086,37.598,45.898,-14.648,0
60077.092,27.832,34.180,37.109,36.621,-43.457,0
60077.096,53.711,24.902,27.832,33.203,63.477,0
60077.100,48.340,27.832,28.809,43.457,101.074,0
60077.104,23.926,37.598,38.086,50.781,-13.672,0
60077.108,31.250,41.504,48.828,49.316,-68.848,0
60077.112,61.035,32.227,43.457,37.598,-68.359,0
60077.115,60.059,26.855,34.668,37.598,-6.836,0
60077.119,30.273,39.062,45.410,53.223,5.371,0
60077.123,22.949,47.363,52.246,51.270,-35.156,0
60077.127,49.805,40.039,38.086,39.551,3.418,0
60077.131,62.500,33.203,27.832,39.551,44.434,0
60077.135,39.062,35.156,35.645,43.945,81.543,0
60077.139,16.602,37.109,43.457,44.922,75.684,0
60077.143,37.598,31.250,36.133,38.086,33.203,0
60077.147,56.641,26.855,30.762,31.738,26.367,0
60077.151,41.992,32.715,40.527,44.434,20.508,0
60077.155,20.996,41.504,50.293,47.363,12.207,0
60077.158,24.414,38.086,44.922,37.109,33.691,0
60077.162,45.410,24.902,35.156,34.180,28.809,0
60077.166,42.969,22.949,32.227,42.480,19.043,0
60077.170,21.484,30.273,39.551,47.852,12.207,0
60077.174,21.484,35.156,42.969,39.062,13.672,0
60077.178,45.410,32.227,31.250,31.250,39.551,0
60077.182,50.293,26.855,22.949,30.273,70.312,0
60077.186,27.344,34.668,30.762,43.457,77.637,0
60077.190,16.602,40.039,39.551,43.945,42.480,0
60077.194,43.457,28.320,28.809,24.902,-4.395,0
60077.197,61.523,22.461,19.531,31.250,24.902,0
60077.201,43.457,29.785,28.809,46.387,57.129,0
60077.205,16.113,33.691,36.621,49.805,70.801,0
60077.209,25.391,28.320,31.250,40.527,106.934,0
60077.213,49.805,20.508,22.949,32.715,49.316,0
60077.217,40.527,20.020,22.949,41.016,-5.859,0
60077.221,18.555,29.785,26.367,43.945,20.996,0
60077.225,18.066,33.691,29.297,36.133,41.016,0
60077.229,39.551,27.832,24.414,26.855,8.789,0
60077.233,43.945,27.344,22.949,37.109,0.488,0
60077.237,21.484,34.180,30.762,43.457,68.848,0
60077.240,14.160,36.133,34.180,35.156,67.871,0
60077.244,36.133,26.367,22.461,23.438,14.160,0
60077.248,43.945,22.461,18.555,27.832,8.301,0
60077.252,18.555,27.832,27.344,36.621,-5.859,0
60077.256,5.859,29.297,30.762,29.297,9.277,0
60077.260,32.227,27.344,21.484,19.043,3.906,0
60077.264,47.852,25.391,15.625,19.531,7.812,0
60077.268,26.367,28.809,25.879,30.762,19.531,0
60077.272,5.859,37.598,38.574,34.668,-4.883,0
60077.276,18.066,35.156,34.180,20.508,6.836,0
60077.280,42.480,30.273,22.949,16.602,7.324,0
60077.283,35.645,32.715,22.461,23.926,-11.230,0
60077.287,7.324,39.551,32.227,28.809,16.113,0
60077.291,15.625,40.039,33.203,24.902,40.039,0
60077.295,40.039,24.902,19.043,18.555,50.293,0
60077.299,34.180,22.949,18.066,23.438,47.363,0
60077.303,15.625,34.668,26.367,31.738,10.742,0
60077.307,11.719,35.156,29.785,32.715,47.852,0
60077.311,31.250,25.391,21.484,22.949,34.180,0
60077.315,41.016,24.902,12.695,26.367,-19.531,0
60077.319,26.855,32.227,19.531,37.109,-2.441,0
60077.322,14.648,35.645,31.738,38.574,-10.254,0
60077.326,30.273,34.668,29.785,30.273,19.043,0
60077.330,41.016,31.250,20.996,21.973,22.949,0
60077.334,27.832,32.715,22.461,30.762,16.113,0
60077.338,1.465,37.109,30.273,31.250,-6.836,0
60077.342,11.719,37.109,31.250,21.973,-29.785,0
60077.346,45.898,30.273,20.996,21.973,28.809,0
60077.350,37.598,29.297,19.043,30.273,67.383,0
60077.354,7.324,40.039,28.320,37.598,75.195,0
60077.358,10.742,44.922,33.203,37.109,98.633,0
60077.362,40.039,34.668,26.855,26.367,45.898,0
60077.365,43.945,27.344,22.461,27.832,48.828,0
60077.369,20.508,36.621,31.738,38.574,63.965,0
60077.373,14.160,44.434,38.086,37.109,18.555,0
60077.377,35.156,35.645,29.297,28.320,5.371,0
60077.381,49.316,30.273,22.461,28.809,41.504,0
60077.385,28.809,36.621,27.344,41.016,27.832,0
60077.389,4.395,44.922,36.133,43.945,26.367,0
60077.393,25.879,40.527,29.297,30.273,63.965,0
60077.397,53.711,30.273,21.973,28.320,63.965,0
60077.401,43.457,35.645,29.297,40.527,63.477,0
60077.405,18.555,43.945,34.180,43.457,26.367,0
60077.408,28.320,41.504,32.715,36.133,6.836,0
60077.412,60.059,33.203,29.297,30.762,-23.926,0
60077.416,52.734,31.250,29.785,38.574,-16.113,0
60077.420,26.367,42.480,36.133,47.852,51.758,0
60077.424,23.438,49.316,36.133,41.016,63.965,0
60077.428,42.969,41.504,26.855,28.809,8.301,0
60077.432,46.875,35.645,21.973,30.762,-10.742,0
60077.436,24.414,40.039,31.738,46.387,-0.488,0
60077.440,18.555,45.898,41.016,49.316,8.789,0
60077.444,42.480,40.527,34.668,39.062,21.973,0
60077.447,49.316,35.156,26.855,37.598,36.133,0
60077.451,26.367,38.086,29.297,41.016,25.879,0
60077.455,9.277,40.527,38.574,44.434,1.465,0
60077.459,30.762,34.180,38.574,34.180,-24.902,0
60077.463,51.758,25.391,25.879,25.879,-24.902,0
60077.467,37.598,28.809,21.484,38.086,46.875,0
60077.471,17.578,38.574,31.738,44.922,29.297,0
60077.475,24.414,35.156,33.203,32.715,0.488,0
60077.479,45.898,24.902,24.902,24.414,18.555,0
60077.483,43.457,23.926,25.391,33.203,-8.301,0
60077.487,16.602,34.668,37.109,41.016,-24.414,0
60077.490,18.555,36.133,42.969,39.062,3.418,0
60077.494,44.434,25.391,29.785,26.367,-6.836,0
60077.498,50.293,20.996,23.438,25.391,5.371,0
60077.502,31.250,26.855,26.367,39.062,26.367,0
60077.506,12.695,29.297,37.109,41.504,35.645,0
60077.510,32.715,20.996,36.133,30.762,19.043,0
60077.514,44.434,14.648,26.367,26.855,38.574,0
60077.518,26.367,18.066,32.715,34.668,27.832,0
60077.522,5.859,17.578,40.527,36.621,33.691,0
60077.526,15.137,12.207,36.133,26.367,38.574,0
60077.530,41.504,13.184,29.297,22.461,-27.344,0
60077.533,36.133,13.672,29.297,23.438,9.277,0
60077.537,9.277,17.578,38.086,26.367,-7.324,0
60077.541,18.066,19.043,38.086,21.484,15.137,0
60077.545,45.410,9.766,24.414,10.742,32.227,0
60077.549,38.574,7.812,17.090,18.066,-0.488,0
60077.553,12.695,14.160,27.344,31.738,18.066,0
60077.557,11.230,18.555,37.109,29.785,-10.254,0
60077.561,39.551,14.160,28.809,19.043,-6.836,0
60077.565,50.293,9.766,23.926,21.484,28.320,0
60077.569,29.297,18.555,33.691,32.715,-6.348,0
60077.572,13.672,26.367,41.016,30.762,-1.465,0
60077.576,38.086,16.113,30.273,14.648,56.641,0
60077.580,56.641,7.324,20.020,10.254,46.387,0
60077.584,32.715,10.254,22.461,18.555,-0.977,0
60077.588,4.395,20.996,30.762,23.926,-16.602,0
60077.592,21.973,22.949,28.320,22.461,49.805,0
60077.596,53.223,17.090,19.043,20.508,45.898,0
60077.600,52.246,21.484,19.043,29.297,-16.113,0
60077.604,24.414,27.832,29.297,31.738,-54.688,1
60077.608,13.672,29.297,34.180,20.020,2.441,0
60077.612,41.992,24.414,25.391,12.207,80.566,0
60077.615,56.641,20.996,13.672,17.090,88.379,0
60077.619,27.344,34.668,23.926,30.273,85.938,0
60077.623,14.160,46.387,37.598,31.250,42.480,0
60077.627,41.992,43.457,32.715,21.973,9.277,0
60077.631,52.734,41.016,26.367,24.414,24.902,0
60077.635,33.691,48.340,28.809,33.203,17.090,0
60077.639,14.648,55.664,37.109,35.156,-21.973,0
60077.643,31.738,50.293,32.715,22.949,8.301,0
60077.647,50.781,45.410,21.973,19.043,28.809,0
60077.651,38.574,51.270,25.391,34.180,33.691,0
60077.655,15.137,59.082,35.156,38.086,-12.207,0
60077.658,22.949,59.082,33.203,29.297,-13.184,0
60077.662,47.363,51.270,17.578,23.438,20.996,0
60077.666,49.316,48.828,15.625,32.227,43.945,0
60077.670,21.973,61.523,34.180,38.574,45.898,0
60077.674,17.090,68.848,37.109,25.879,15.625,0
60077.678,44.922,62.500,24.902,18.066,40.039,0
60077.682,51.270,60.059,16.113,20.996,51.270,0
60077.686,24.902,66.895,23.926,30.273,31.738,0
60077.690,8.301,76.660,36.133,32.227,16.602,0
60077.694,37.598,68.848,27.344,19.531,11.719,0
60077.697,48.828,59.082,20.020,19.531,6.836,0
60077.701,22.949,64.453,26.855,34.668,29.297,0
60077.705,6.348,74.707,35.156,36.133,59.570,0
60077.709,20.996,74.707,25.879,22.461,63.477,0
60077.713,44.922,64.941,8.789,20.020,71.289,0
60077.717,37.109,61.035,11.230,30.273,20.508,0
60077.721,7.812,62.988,31.250,38.086,-31.250,0
60077.725,15.625,61.035,40.039,34.180,-6.348,0
60077.729,44.434,54.688,27.832,25.879,5.859,0
60077.733,39.062,53.223,22.949,27.832,18.555,0
60077.737,7.324,61.035,34.668,37.109,56.152,0
60077.740,3.418,65.430,40.527,39.551,45.410,0
60077.744,39.062,61.523,29.297,34.180,6.348,0
60077.748,50.781,62.988,26.855,33.203,36.133,0
60077.752,25.391,67.383,33.203,36.133,16.113,0
60077.756,13.672,70.801,38.086,41.992,-0.977,0
60077.760,41.016,64.941,33.691,36.133,35.156,0
60077.764,54.199,54.199,20.508,25.391,67.871,0
60077.768,32.227,60.547,27.344,38.086,52.246,0
60077.772,13.184,68.848,37.109,42.480,13.672,0
60077.776,21.973,62.012,27.344,26.855,-23.926,0
60077.780,45.898,59.570,20.508,24.414,-8.301,0
60077.783,41.992,66.895,24.414,33.691,28.809,0
60077.787,14.648,77.637,37.109,43.457,65.430,0
60077.791,21.973,76.172,42.969,42.969,78.125,0
60077.795,49.805,66.406,30.762,34.180,56.152,0
60077.799,52.734,64.453,28.320,38.086,26.367,0
60077.803,33.691,70.801,41.016,43.945,4.883,0
60077.807,23.438,74.219,43.457,41.504,52.246,0
60077.811,44.922,66.406,33.203,35.156,63.477,0
60077.815,58.105,62.988,25.391,32.227,37.598,0
60077.819,36.621,68.848,30.762,42.480,53.711,0
60077.822,17.090,70.312,37.598,41.016,64.941,0
60077.826,34.668,64.941,29.297,24.902,48.828,0
60077.830,51.270,62.500,19.043,20.996,-12.695,0
60077.834,37.109,65.918,21.973,24.414,2.930,0
60077.838,8.789,67.383,33.203,29.297,57.129,0
60077.842,20.508,64.941,32.715,28.320,66.406,0
60077.846,49.316,57.129,20.996,20.020,26.367,0
60077.850,42.480,54.199,20.508,26.367,1.465,0
60077.854,16.602,58.594,32.227,32.715,39.551,0
60077.858,16.113,57.617,39.062,30.273,45.410,0
60077.862,44.434,49.805,29.785,24.902,31.738,0
60077.865,49.805,45.410,24.902,23.438,20.020,0
60077.869,20.020,52.734,29.785,33.203,18.555,0
60077.873,9.766,58.594,32.227,38.574,56.152,0
60077.877,35.645,52.246,32.715,26.855,72.266,0
60077.881,44.922,49.316,30.273,25.391,66.895,0
60077.885,27.832,51.270,32.715,37.109,39.551,0
60077.889,13.672,55.664,41.016,41.504,14.160,0
60077.893,32.715,54.199,37.598,33.691,29.785,0
60077.897,54.688,44.434,27.344,34.180,31.250,0
60077.901,43.457,43.945,30.762,40.527,19.043,0
60077.905,24.414,51.270,41.504,48.828,6.348,0
60077.908,33.203,50.293,45.410,46.387,15.137,0
60077.912,51.758,37.109,32.227,31.250,38.086,0
60077.916,44.434,34.668,26.855,35.645,-0.977,0
60077.920,19.531,44.922,40.527,48.340,14.160,0
60077.924,18.555,46.875,42.480,45.898,78.613,0
60077.928,51.270,35.156,30.762,38.574,51.758,0
60077.932,59.570,26.855,26.367,39.551,0.000,0
60077.936,31.250,36.621,36.133,52.734,58.105,0
60077.940,14.648,44.434,42.480,51.270,72.266,0
60077.944,36.621,33.203,32.227,36.133,45.898,0
60077.947,53.711,22.949,20.996,36.621,60.547,0
60077.951,31.250,25.391,20.996,41.504,62.988,0
60077.955,4.883,29.785,32.715,44.434,93.262,0
60077.959,24.414,25.879,32.715,35.156,86.914,0
60077.963,47.852,16.602,20.996,22.949,106.445,0
60077.967,34.668,14.648,24.902,35.156,75.195,0
60077.971,13.184,25.391,37.109,40.527,-14.648,0
60077.975,22.949,28.320,32.715,32.227,-5.371,0
60077.979,47.852,19.531,22.949,30.762,16.602,0
60077.983,47.363,19.043,21.484,34.180,-4.395,0
60077.987,21.973,23.438,30.273,44.434,-35.156,0
60077.990,15.137,22.949,35.645,42.969,19.043,0
60077.994,42.969,14.648,25.391,28.320,2.930,0
60077.998,55.176,11.230,19.043,27.832,-31.738,0
60078.002,30.762,16.602,32.715,38.574,-31.738,0
60078.006,10.254,20.508,44.922,38.574,-21.973,0
60078.010,34.180,18.066,35.156,34.180,7.324,0
60078.014,49.316,6.348,24.902,34.668,69.336,0
60078.018,31.250,6.836,29.297,41.016,33.203,0
60078.022,12.695,20.020,39.551,44.922,-12.207,0
60078.026,23.438,18.066,42.480,34.668,11.719,0
60078.030,45.898,7.812,28.320,26.855,-47.852,0
60078.033,37.598,9.277,23.438,33.203,-20.996,0
60078.037,14.648,19.531,37.109,41.016,-1.953,0
60078.041,21.484,19.531,41.016,34.180,3.418,0
60078.045,41.504,5.371,28.320,20.020,65.918,0
60078.049,37.598,2.441,24.414,27.832,62.012,0
60078.053,17.578,10.254,35.645,40.527,29.297,0
60078.057,11.230,8.301,39.551,33.691,45.410,0
60078.061,35.645,-0.977,32.227,22.461,43.945,0
60078.065,47.363,-3.906,27.344,28.320,-8.301,0
60078.069,23.926,3.906,33.691,41.016,-8.301,0
60078.072,-1.465,10.254,41.992,40.527,-0.977,0
60078.076,22.461,4.395,38.574,26.855,-9.766,0
60078.080,47.363,-4.395,26.855,25.879,5.859,0
60078.084,32.227,-1.953,30.273,34.180,28.809,0
60078.088,10.742,8.789,41.504,41.504,41.504,0
60078.092,22.461,5.859,36.621,34.668,-1.465,0
60078.096,42.480,-8.789,20.508,16.113,-18.555,0
60078.100,36.621,-11.230,21.484,21.484,51.270,0
60078.104,13.672,-2.441,32.227,32.715,21.484,0
60078.108,7.324,-0.488,36.621,31.738,-10.254,0
60078.112,31.250,-9.766,24.414,22.949,2.441,0
60078.115,35.156,-15.625,12.695,20.996,-20.508,0
60078.119,11.230,-11.230,25.879,32.227,35.156,0
60078.123,3.418,-2.441,40.039,37.598,33.691,0
60078.127,28.320,-3.418,34.668,32.715,26.855,0
60078.131,47.363,-4.883,29.297,24.902,-15.625,0
60078.135,29.785,-1.465,31.250,25.879,-12.207,0
60078.139,11.719,6.348,37.109,31.250,49.805,0
60078.143,30.273,2.441,34.668,17.578,47.852,0
60078.147,45.898,-9.766,27.344,11.719,45.898,0
60078.151,30.273,-10.254,27.832,21.484,43.945,0
60078.155,2.930,0.488,34.668,25.391,49.316,0
60078.158,9.277,-0.977,39.551,20.020,41.992,0
60078.162,31.738,-15.137,31.250,14.648,29.785,0
60078.166,33.203,-15.625,31.738,26.855,66.406,0
60078.170,17.090,-1.953,41.504,38.086,68.848,0
60078.174,14.648,4.395,38.574,34.180,34.180,1
60078.178,37.598,-4.883,27.832,20.508,8.789,0
60078.182,39.551,-9.766,25.879,22.461,-4.883,0
60078.186,22.461,-2.441,33.691,37.598,16.602,0
60078.190,18.555,9.766,43.945,37.598,-4.395,0
60078.194,42.969,5.371,41.016,25.879,-8.301,0
60078.197,57.129,-3.418,30.762,22.949,36.133,0
60078.201,42.969,7.324,34.180,33.691,41.992,0
60078.205,27.344,21.484,46.875,42.480,21.973,0
60078.209,38.086,20.020,45.410,34.180,20.020,0
60078.213,56.152,13.672,33.203,26.367,10.254,0
60078.217,47.363,17.090,32.227,38.086,-13.184,0
60078.221,24.414,28.809,38.574,45.898,-17.578,0
60078.225,24.902,32.227,38.086,32.715,-5.859,0
60078.229,46.387,27.344,29.297,23.438,40.039,0
60078.233,45.410,28.809,23.926,25.879,47.852,0
60078.237,14.648,34.668,28.320,30.273,32.715,0
60078.240,5.859,38.574,32.227,30.762,30.273,0
60078.244,30.273,31.250,21.484,19.043,28.809,0
60078.248,38.574,26.367,15.625,20.020,21.484,0
60078.252,21.484,36.133,27.832,32.715,-28.809,0
60078.256,9.277,44.922,37.109,32.227,27.344,0
60078.260,31.250,42.480,28.809,30.273,31.738,0
60078.264,45.410,39.062,26.855,33.203,-25.879,0
60078.268,30.762,47.852,39.551,41.992,32.715,0
60078.272,10.742,61.035,52.734,45.898,102.051,0
60078.276,27.344,61.035,48.340,32.715,40.039,0
60078.280,56.152,54.688,34.668,25.391,6.836,0
60078.283,50.293,57.129,30.273,34.180,-0.977,0
60078.287,20.508,65.918,37.598,45.898,-38.086,0
60078.291,15.137,66.895,40.527,40.527,-18.555,0
60078.295,42.969,61.035,31.738,28.320,11.719,0
60078.299,44.434,58.594,30.273,32.227,13.184,0
60078.303,21.484,62.012,34.668,41.992,42.480,0
60078.307,17.090,65.918,39.062,42.480,52.246,0
60078.311,38.086,60.059,32.715,31.250,53.711,0
60078.315,50.293,59.570,28.320,30.762,86.426,0
60078.319,26.855,67.383,35.645,40.039,41.016,0
60078.322,16.113,73.242,42.969,39.551,3.418,0
60078.326,40.039,67.383,38.086,31.738,-8.301,0
60078.330,59.570,61.523,28.320,30.762,-5.371,0
60078.334,48.828,65.430,31.738,37.598,-2.930,0
60078.338,17.090,73.730,41.504,40.039,14.160,0
60078.342,16.113,72.754,35.156,36.133,20.508,0
60078.346,39.062,64.941,25.879,33.691,-51.270,0
60078.350,40.039,67.871,25.879,39.062,-12.207,0
60078.354,12.207,75.684,31.250,42.969,19.043,0
60078.358,10.254,76.172,41.016,33.691,-6.836,0
60078.362,40.527,69.336,35.645,24.902,54.199,0
60078.365,46.387,70.801,27.832,31.250,5.859,0
60078.369,23.438,78.613,37.109,43.945,-5.859,0
60078.373,12.207,79.102,42.480,42.480,18.555,0
60078.377,44.922,69.824,29.297,27.832,38.086,0
60078.381,61.523,65.918,20.508,29.785,44.434,0
60078.385,42.480,71.777,27.832,40.039,34.180,0
60078.389,20.996,79.102,41.504,41.992,88.379,0
60078.393,32.227,75.684,37.598,28.320,94.238,0
60078.397,51.758,66.406,22.949,18.066,18.555,0
60078.401,40.039,65.918,28.320,31.738,1.465,0
60078.405,13.672,72.754,39.062,42.480,61.035,0
60078.408,14.160,74.707,37.598,35.645,62.500,0
60078.412,40.527,68.359,31.250,26.855,-10.742,0
60078.416,39.062,66.895,27.832,30.762,-11.230,0
60078.420,18.555,73.730,34.668,41.992,53.223,0
60078.424,20.508,75.195,39.551,37.109,80.566,0
60078.428,42.480,69.824,32.227,28.809,41.016,0
60078.432,47.363,65.430,22.949,31.250,57.129,0
60078.436,26.367,71.289,30.273,35.156,1.465,0
60078.440,17.090,77.637,41.992,37.109,-24.414,0
60078.444,37.598,70.312,34.668,28.809,31.250,0
60078.447,58.105,64.941,24.902,28.809,-5.859,0
60078.451,47.363,68.848,28.320,44.434,23.926,0
60078.455,24.414,72.266,37.598,46.875,38.574,0
60078.459,35.645,68.359,32.227,28.809,5.371,0
60078.463,55.664,60.059,18.555,20.996,58.105,0
60078.467,45.898,63.965,22.461,33.691,29.297,0
60078.471,19.531,73.242,38.086,44.434,39.062,0
60078.475,22.461,70.312,38.086,37.109,41.992,0
60078.479,51.758,56.152,24.414,31.738,-23.926,0
60078.483,53.223,54.199,21.484,32.227,6.836,0
60078.487,26.855,62.988,32.227,32.227,56.152,0
60078.490,16.602,64.941,37.109,28.809,67.383,0
60078.494,42.969,58.594,28.809,19.043,93.262,0
60078.498,54.688,52.734,25.391,27.344,51.758,0
60078.502,31.738,59.082,37.109,40.527,38.086,0
60078.506,18.555,65.918,38.574,39.062,49.316,0
60078.510,39.551,61.523,31.738,27.832,27.344,0
60078.514,55.664,53.711,33.203,22.949,6.348,0
60078.518,40.039,51.758,37.109,34.668,21.484,0
60078.522,17.090,59.570,45.898,43.457,62.988,0
60078.526,25.879,60.547,44.434,32.227,38.086,0
60078.530,51.758,53.711,35.156,27.344,-10.254,0
60078.533,39.551,51.270,35.156,34.180,31.738,0
60078.537,10.254,50.781,39.062,39.062,66.895,0
60078.541,17.578,47.852,39.551,34.180,32.715,0
60078.545,40.527,39.551,34.668,23.438,23.926,0
60078.549,41.016,29.785,31.738,27.344,-4.395,0
60078.553,18.555,29.785,39.062,28.320,4.883,0
60078.557,4.883,35.156,42.480,24.414,36.621,0
60078.561,32.227,26.367,35.156,20.996,39.551,0
60078.565,52.734,19.043,30.273,24.902,11.719,0
60078.569,31.250,23.926,36.133,34.180,6.348,0
60078.572,10.742,26.855,41.504,31.250,51.758,0
60078.576,34.180,19.043,30.762,20.020,22.461,0
60078.580,57.617,11.230,23.438,21.484,28.809,0
60078.584,46.387,12.695,29.785,35.645,22.949,0
60078.588,24.902,20.020,41.504,44.434,12.695,0
60078.592,30.273,18.555,40.039,37.598,61.523,0
60078.596,51.758,4.883,20.996,23.438,0.977,0
60078.600,49.316,0.977,11.230,25.879,-36.133,0
60078.604,31.250,10.742,22.461,35.645,19.043,0
60078.608,28.320,20.020,35.645,32.227,20.020,0
60078.612,48.828,13.672,31.738,27.344,7.812,0
60078.615,59.082,6.836,26.855,32.715,41.016,0
60078.619,40.039,15.137,39.062,44.434,36.621,0
60078.623,23.926,19.531,44.434,43.945,37.598,0
60078.627,38.574,11.230,33.691,31.738,46.387,0
60078.631,51.270,6.348,26.855,23.926,9.277,0
60078.635,33.203,10.254,27.344,27.832,24.414,0
60078.639,10.254,20.996,33.691,28.320,24.902,0
60078.643,28.809,17.090,31.738,22.949,20.996,0
60078.647,54.688,7.324,23.926,20.020,13.672,0
60078.651,45.410,17.578,31.250,25.879,41.016,0
60078.655,20.020,30.762,39.551,29.297,25.391,0
60078.658,19.531,25.879,34.668,20.996,10.742,0
60078.662,42.480,16.602,24.414,16.113,-17.578,0
60078.666,41.992,14.160,20.020,22.949,8.789,0
60078.670,14.160,20.508,28.320,33.203,45.898,0
60078.674,11.719,20.996,35.156,27.344,31.738,0
60078.678,40.039,12.695,24.902,15.625,69.824,0
60078.682,41.992,12.695,18.066,18.066,81.543,0
60078.686,16.113,16.602,29.297,24.414,16.113,0
60078.690,10.254,15.625,41.016,28.320,-0.488,0
60078.694,32.227,10.254,33.203,21.484,15.137,0
60078.697,42.969,8.301,17.578,17.578,44.922,0
60078.701,24.414,14.160,23.926,31.250,51.270,0
60078.705,6.836,22.461,41.504,38.086,-6.348,0
60078.709,23.926,21.484,41.504,28.320,-36.133,0
60078.713,40.039,11.719,29.297,20.996,-35.156,0
60078.717,32.715,13.184,29.297,29.297,-29.297,0
60078.721,11.230,25.391,42.969,41.016,-16.113,0
60078.725,20.508,29.297,43.457,34.668,6.836,0
60078.729,50.781,24.414,32.715,25.391,32.227,0
60078.733,48.828,26.855,30.273,29.297,-14.648,0
60078.737,20.996,36.621,36.133,31.250,18.555,0
60078.740,13.184,38.086,38.574,28.809,60.547,0
60078.744,38.086,29.785,28.809,22.461,31.250,0
60078.748,50.293,29.785,25.879,28.320,33.203,0
60078.752,37.109,39.062,37.109,40.527,45.898,0
60078.756,18.555,43.457,43.945,40.039,98.145,0
60078.760,33.203,33.203,30.762,29.785,51.270,0
60078.764,58.105,23.438,19.531,26.855,9.766,0
60078.768,40.527,28.809,34.668,39.062,28.320,0
60078.772,22.461,35.645,50.293,46.875,-4.395,0
60078.776,31.250,32.227,43.945,33.691,-7.324,0
60078.780,48.828,24.902,33.691,27.832,14.648,0
60078.783,46.387,22.461,31.738,35.156,18.066,0
60078.787,24.414,30.762,41.016,42.480,20.508,0
60078.791,24.902,36.133,47.852,40.527,46.387,0
60078.795,50.293,23.926,36.621,32.715,61.035,0
60078.799,48.340,16.602,31.250,38.086,54.688,0
60078.803,22.461,21.484,40.527,44.922,-12.695,0
60078.807,17.578,23.438,43.945,44.434,18.555,0
60078.811,38.574,16.602,35.645,31.738,64.453,0
60078.815,49.316,9.766,31.250,30.762,40.039,0
60078.819,33.203,14.648,36.621,45.898,6.348,0
60078.822,13.672,19.043,41.504,47.363,26.855,0
60078.826,31.250,10.742,39.062,34.180,36.621,0
60078.830,51.270,1.953,28.809,23.438,-17.090,0
60078.834,41.016,2.930,26.855,26.367,-2.930,0
60078.838,13.184,8.789,33.691,31.250,3.906,0
60078.842,16.602,8.789,33.203,24.414,-29.297,0
60078.846,38.086,3.906,20.996,15.137,9.766,0
60078.850,38.086,7.324,23.438,26.367,38.086,0
60078.854,20.508,18.555,39.551,36.621,16.602,0
60078.858,12.207,18.066,39.551,28.320,59.570,1
60078.862,36.133,10.742,27.832,20.508,32.715,0
60078.865,41.504,10.742,16.113,20.508,6.348,0
60078.869,18.066,19.531,24.414,33.691,62.500,0
60078.873,5.371,21.484,37.598,36.621,35.645,0
60078.877,27.832,10.742,30.762,22.461,-35.156,0
60078.881,46.875,12.207,29.297,23.438,-12.207,0
60078.885,31.250,23.926,34.180,35.645,51.758,0
60078.889,13.672,34.668,42.480,42.969,23.926,0
60078.893,33.203,34.668,37.109,31.250,-10.254,0
60078.897,49.316,23.926,20.020,21.973,-11.719,0
60078.901,36.621,24.902,19.531,27.344,1.465,0
60078.905,19.531,39.062,31.250,35.645,27.832,0
60078.908,24.414,42.969,34.668,31.738,68.848,0
60078.912,41.016,32.227,21.973,21.484,80.078,0
60078.916,39.062,32.227,18.555,26.367,0.977,0
60078.920,14.160,41.992,30.273,38.086,16.602,0
60078.924,4.395,45.410,37.598,34.668,63.477,0
60078.928,30.762,44.922,28.809,23.926,34.668,0
60078.932,41.016,46.387,21.484,23.926,31.738,0
60078.936,22.461,54.199,28.809,36.133,23.438,0
60078.940,6.348,60.547,39.062,36.133,28.809,0
60078.944,28.809,55.176,31.250,18.555,29.297,0
60078.947,54.199,52.734,20.996,23.438,1.953,0
60078.951,31.250,57.617,19.531,32.227,11.719,0
60078.955,1.953,64.453,24.902,33.203,1.465,0
60078.959,27.344,64.941,29.297,28.320,6.348,0
60078.963,52.246,60.059,23.926,21.973,26.855,0
60078.967,42.480,62.500,31.738,35.156,7.812,0
60078.971,21.973,67.871,42.480,42.969,27.832,0
60078.975,22.461,66.406,36.621,29.785,-11.719,0
60078.979,47.363,60.547,25.391,21.484,-14.648,0
60078.983,45.410,58.594,21.484,27.832,58.105,0
60078.987,19.531,65.430,28.320,34.180,23.926,0
60078.990,15.625,68.359,33.691,27.344,-31.250,0
60078.994,37.598,59.082,26.855,18.555,17.578,0
60078.998,46.875,56.152,23.926,23.926,38.574,0
60079.002,29.297,65.430,33.691,38.574,-15.625,0
60079.006,8.301,67.871,38.574,40.039,20.020,0
60079.010,26.367,60.547,27.832,25.879,19.043,0
60079.014,44.922,54.688,19.531,24.414,-0.488,0
60079.018,34.180,60.059,25.879,41.504,58.594,0
60079.022,12.695,68.848,36.621,42.969,26.855,0
60079.026,18.555,62.988,31.250,30.273,74.219,0
60079.030,44.434,60.059,21.484,28.320,53.711,0
60079.033,41.504,60.547,20.508,34.180,10.742,0
60079.037,11.719,65.430,28.809,42.480,69.824,0
60079.041,13.672,67.871,34.668,38.574,64.453,0
60079.045,37.598,58.594,25.391,28.809,15.137,0
60079.049,39.551,57.129,20.020,33.203,15.137,0
60079.053,19.531,62.012,21.484,44.434,49.316,0
60079.057,8.789,64.941,22.949,39.551,61.523,0
60079.061,32.227,56.641,21.484,25.391,45.898,0
60079.065,50.781,46.387,16.113,24.902,6.348,0
60079.069,33.691,51.758,26.367,37.109,-25.391,0
60079.072,12.207,63.477,37.598,37.598,-22.949,0
60079.076,33.203,60.059,29.297,25.879,16.602,0
60079.080,48.828,51.758,21.973,25.879,85.449,0
60079.084,36.621,53.711,25.391,36.133,48.828,0
60079.088,14.648,56.152,34.180,37.109,-6.836,0
60079.092,20.020,51.758,36.621,22.461,-16.113,0
60079.096,46.387,44.434,28.320,16.602,3.418,0
60079.100,44.434,45.410,25.879,25.879,75.684,0
60079.104,21.484,56.641,36.133,35.645,80.566,0
60079.108,18.066,56.152,39.551,36.621,78.613,0
60079.112,40.039,44.922,26.367,22.949,91.309,0
60079.115,42.480,38.086,17.578,18.555,56.152,0
60079.119,16.113,36.621,27.344,28.320,8.789,0
60079.123,5.371,39.551,36.133,32.715,23.438,0
60079.127,32.715,34.668,27.832,26.367,43.945,0
60079.131,51.758,28.320,17.090,23.438,58.594,0
60079.135,32.715,29.297,24.902,33.203,82.031,0
60079.139,12.207,34.668,38.574,33.691,66.895,0
60079.143,33.203,33.203,36.133,25.879,20.508,0
60079.147,56.152,24.902,25.879,20.996,7.812,0
60079.151,43.457,24.902,28.809,35.156,-23.926,0
60079.155,19.531,34.180,40.039,45.898,-2.930,0
60079.158,12.207,27.344,41.016,26.855,81.543,0
60079.162,31.250,17.578,32.227,13.672,45.898,0
60079.166,25.879,19.043,24.902,10.254,40.039,0
60079.170,-8.789,28.809,33.691,7.324,47.852,0
60079.174,-20.996,29.785,43.945,-5.859,11.230,0
60079.178,-20.020,12.207,30.273,-33.203,0.977,0
60079.182,-17.578,10.742,18.555,-38.574,23.438,0
60079.186,-36.621,19.531,32.715,-28.320,41.504,0
60079.190,-59.570,22.949,41.992,-35.156,5.859,0
60079.194,-49.805,21.973,29.297,-55.176,6.836,0
60079.197,-41.992,15.625,23.438,-61.035,-9.766,0
60079.201,-69.824,12.207,33.691,-60.059,5.859,0
60079.205,-98.145,13.672,45.898,-62.988,67.871,0
60079.209,-82.520,12.695,46.387,-69.824,68.848,0
60079.213,-63.477,1.465,36.133,-87.891,54.688,0
60079.217,-80.566,-4.883,35.156,-92.285,54.199,0
60079.221,-110.840,-1.953,50.781,-82.520,47.852,0
60079.225,-109.375,-1.465,47.852,-93.262,43.457,0
60079.229,-83.496,-6.348,32.715,-110.352,-12.207,0
60079.233,-81.055,-15.625,38.086,-104.980,-30.762,0
60079.237,-103.516,-15.625,51.270,-94.238,69.336,0
60079.240,-108.887,-15.625,59.570,-87.891,65.918,0
60079.244,-80.566,-30.273,46.875,-90.332,51.758,0
60079.248,-63.477,-34.668,36.133,-82.031,76.172,0
60079.252,-74.707,-26.367,48.828,-67.871,35.156,0
60079.256,-85.449,-27.344,58.105,-60.059,45.410,0
60079.260,-57.617,-34.668,58.105,-50.781,70.312,0
60079.264,-21.973,-32.715,53.711,-35.156,24.902,0
60079.268,-24.902,-26.367,52.246,-18.066,1.465,0
60079.272,-38.086,-19.531,56.641,-6.836,11.719,0
60079.276,-14.160,-23.926,50.781,-3.906,56.641,0
60079.280,14.648,-38.574,36.133,-4.395,65.430,0
60079.283,17.090,-39.062,36.621,12.695,70.312,0
60079.287,5.371,-26.367,46.875,36.133,45.410,0
60079.291,16.602,-21.973,48.828,39.551,-9.766,0
60079.295,51.270,-27.832,33.203,33.203,3.906,0
60079.299,66.406,-26.367,26.855,47.363,34.668,0
60079.303,49.805,-14.648,29.297,67.383,60.059,0
60079.307,39.062,-3.418,33.203,73.242,35.156,0
60079.311,65.918,-5.371,37.598,66.406,-3.418,0
60079.315,89.355,-7.812,33.203,63.965,3.906,0
60079.319,79.102,3.906,33.691,79.590,12.695,0
60079.322,63.477,13.184,40.527,85.938,52.734,0
60079.326,83.984,11.719,38.086,75.684,26.855,0
60079.330,109.863,6.348,26.367,73.730,-16.113,0
60079.334,92.285,7.812,21.973,83.496,15.137,0
60079.338,64.453,19.531,28.809,84.961,-0.977,0
60079.342,75.195,24.902,31.250,76.172,23.926,0
60079.346,101.562,18.066,21.973,72.266,-11.719,0
60079.350,92.285,15.137,20.508,78.613,-19.531,0
60079.354,68.359,25.879,32.715,84.473,9.277,0
60079.358,68.848,32.715,35.156,82.520,-7.324,0
60079.362,95.215,26.855,21.973,74.707,-5.371,0
60079.365,103.516,23.438,10.254,75.195,-14.648,0
60079.369,76.172,34.180,17.090,88.379,-2.930,0
60079.373,62.012,41.016,31.738,85.938,33.691,0
60079.377,85.449,38.574,30.273,71.289,1.953,0
60079.381,98.633,38.086,18.555,72.266,-6.836,0
60079.385,83.496,47.852,17.578,77.148,84.473,0
60079.389,64.941,58.594,37.598,81.543,90.820,0
60079.393,75.195,54.199,42.480,71.777,44.922,0
60079.397,94.238,45.410,28.320,62.500,40.039,0
60079.401,85.449,49.316,27.832,72.754,-14.160,0
60079.405,57.129,58.594,39.062,77.637,50.293,0
60079.408,62.012,61.035,37.598,69.336,141.113,0
60079.412,82.031,51.270,26.367,62.012,75.684,0
60079.416,76.172,48.828,24.902,68.359,48.828,0
60079.420,56.152,62.012,33.691,74.219,11.719,0
60079.424,52.734,71.289,38.086,71.289,-6.836,0
60079.428,81.055,64.453,33.203,65.430,11.719,0
60079.432,88.379,58.594,26.855,59.570,13.184,0
60079.436,68.848,65.430,31.738,66.895,-3.906,0
60079.440,56.152,71.289,40.039,71.289,29.785,0
60079.444,71.289,66.406,34.180,58.594,52.734,0
60079.447,89.844,60.059,27.344,58.105,-5.859,0
60079.451,76.660,65.430,31.738,67.871,45.410,2
60079.455,51.270,72.754,40.039,70.312,48.340,0
60079.459,62.012,63.965,37.109,64.941,0.000,0
60079.463,88.379,52.246,26.855,58.105,40.039,0
60079.467,78.613,56.641,26.367,62.012,41.992,0
60079.471,43.945,66.406,37.109,69.336,47.363,0
60079.475,39.062,64.453,37.109,62.012,34.668,0
60079.479,66.895,55.664,25.879,48.828,8.789,0
60079.483,71.777,55.176,24.414,54.199,-10.742,0
60079.487,49.805,61.035,30.273,68.848,3.906,0
60079.490,41.992,66.406,38.574,64.453,67.871,0
60079.494,63.477,55.664,25.879,52.734,30.273,0
60079.498,73.730,45.898,5.859,55.176,17.090,0
60079.502,54.199,54.199,20.508,65.430,25.391,0
60079.506,37.598,59.570,36.621,66.895,21.973,0
60079.510,53.711,57.129,32.715,54.199,24.902,0
60079.514,71.777,49.316,23.926,46.875,24.414,0
60079.518,62.500,49.805,24.902,57.129,0.488,0
60079.522,34.668,58.105,40.527,61.035,5.371,0
60079.526,36.621,51.758,42.480,52.246,31.250,0
60079.530,62.500,46.387,29.785,45.898,75.684,0
60079.533,59.570,51.758,29.785,49.316,66.406,0
60079.537,33.691,57.129,37.109,57.129,-5.859,0
60079.541,31.250,59.570,36.133,54.199,8.301,0
60079.545,54.688,49.805,29.785,42.969,28.809,0
60079.549,55.176,47.363,29.785,43.945,42.969,0
60079.553,35.645,56.152,35.645,56.641,35.645,0
60079.557,26.367,56.152,39.551,55.664,18.066,0
60079.561,47.852,49.805,33.691,42.969,54.688,0
60079.565,69.336,48.340,28.809,46.387,48.828,0
60079.569,56.152,54.688,38.086,63.477,41.992,0
60079.572,33.203,62.012,48.340,62.988,-7.324,0
60079.576,45.410,56.641,46.387,46.387,-3.906,0
60079.580,64.453,46.387,37.598,43.457,33.203,0
60079.584,51.758,47.363,33.691,49.316,-56.641,0
60079.588,25.879,55.664,42.480,52.734,-35.156,0
60079.592,32.227,56.152,44.922,38.574,39.551,0
60079.596,61.035,47.852,33.203,32.715,13.184,0
60079.600,55.664,48.828,30.762,39.551,31.738,0
60079.604,23.926,56.152,38.086,41.504,71.289,0
60079.608,16.113,59.570,34.180,40.039,39.551,0
60079.612,42.969,49.316,20.508,27.344,20.996,0
60079.615,54.688,40.527,21.484,31.250,19.043,0
60079.619,30.273,49.805,34.180,43.945,-7.812,0
60079.623,16.113,57.617,41.504,43.457,28.320,0
60079.627,38.574,50.293,35.156,36.133,65.918,0
